06/18/2020 10:01:38
Tempo T_f_e T_f_s AR AR T_q_e T_q_s Corrente_P_f Corrente_P_q Corrente_P_RESERVA Corrente_eletromag_f Corrente_eletromag_q AR AR T_1 T_2 T_3 T_4 T_5 T_6 T_7 T_8 T_9 T_10 T_11 T_12 T_13 T_14 T_15 T_16 Velocidade_f_(m/s) Vazao_f_(L/s) q_f_(W) AR AR AR Velocidade_q_(m/s) Vazao_q_(L/s) q_q_(W) DeltaP_q_(Pa) DeltaP_f_(Pa) DeltaP_f_(Psi) AR
0,011000  	17,210257  	34,470238  	22,278496  	1256,670793  	70,592873  	63,194845  	0,004495  	0,006315  	0,003964  	0,004087  	0,004243  	0,000000  	-0,000000  	23,294735  	20,048528  	21,061961  	22,674618  	28,118054  	26,606130  	28,086224  	29,109735  	34,990786  	33,632427  	37,157005  	57,442388  	24,454311  	23,829441  	25,288914  	62,049684  	0,077358  	0,039198  	-2830,090251  	25621,907044  	-0,018553  	-0,049997  	0,218826  	0,110881  	-3,433939  	4968,318807  	11592,757603  	1,681387  	-0,047948  
2,616000  	17,227792  	34,473505  	22,280953  	1256,670793  	70,600786  	63,202989  	0,004485  	0,006327  	0,003964  	0,004066  	0,004221  	-0,000001  	-0,000000  	23,290563  	20,067918  	21,063654  	22,675199  	28,112671  	26,613026  	28,078538  	29,110093  	34,984780  	33,629488  	37,166463  	57,435098  	24,458787  	23,841457  	25,290288  	62,060924  	0,060366  	0,030588  	-2206,595538  	25626,452541  	-0,018557  	-0,050007  	0,200905  	0,101800  	-3,152610  	4993,946043  	11381,814501  	1,650793  	-0,047957  
3,599000  	17,237909  	34,463706  	22,283716  	357,439972  	70,605521  	63,198979  	0,004487  	0,006322  	0,003965  	0,004090  	0,004201  	0,000001  	-0,000000  	23,304438  	20,058944  	21,064782  	22,677980  	28,121538  	26,616725  	28,089242  	29,114750  	34,995244  	33,629148  	37,163074  	57,431066  	24,478286  	23,858306  	25,297974  	62,059940  	0,079787  	0,040429  	-2913,138076  	12630,035359  	-0,036567  	-0,049992  	0,185539  	0,094014  	-2,914921  	4982,573847  	11427,358553  	1,657398  	-0,047944  
4,601000  	17,246493  	34,456496  	22,285189  	956,927186  	70,609571  	63,195125  	0,004495  	0,006330  	0,003966  	0,004103  	0,004234  	0,000001  	-0,000000  	23,287293  	20,063324  	21,058415  	22,674008  	28,120363  	26,624450  	28,086285  	29,117235  	34,996837  	33,641066  	37,156032  	57,415030  	24,479468  	23,857401  	25,287995  	62,046897  	0,090079  	0,045643  	-3285,890435  	22580,122363  	-0,022196  	-0,049990  	0,211643  	0,107241  	-3,328583  	5000,437569  	11588,775146  	1,680810  	-0,047943  
5,601000  	17,254647  	34,457975  	22,286295  	956,927186  	70,612157  	63,191830  	0,004498  	0,006314  	0,003963  	0,004081  	0,004225  	-0,000000  	-0,000000  	23,307569  	20,088243  	21,069197  	22,676342  	28,133035  	26,626314  	28,097033  	29,134692  	35,004601  	33,657680  	37,165923  	57,434862  	24,492080  	23,881214  	25,299601  	62,064052  	0,072131  	0,036549  	-2630,174045  	22585,706250  	-0,022202  	-0,050004  	0,204328  	0,103534  	-3,216085  	4965,644660  	11648,949783  	1,689537  	-0,047955  
6,601000  	17,243672  	34,454832  	22,287093  	357,439972  	70,609789  	63,186111  	0,004491  	0,006335  	0,003965  	0,004100  	0,004252  	-0,000001  	-0,000000  	23,311340  	20,077830  	21,065926  	22,666605  	28,122868  	26,621119  	28,091257  	29,137107  	35,007588  	33,647420  	37,174658  	57,431066  	24,492206  	23,869666  	25,293713  	62,055025  	0,087336  	0,044254  	-3186,070676  	12633,558368  	-0,036577  	-0,050008  	0,225884  	0,114457  	-3,556985  	5010,453592  	11502,340303  	1,668273  	-0,047958  
7,599000  	17,239166  	34,448269  	22,288014  	1256,670793  	70,609976  	63,193477  	0,004483  	0,006342  	0,003963  	0,004107  	0,004226  	-0,000001  	-0,000000  	23,299460  	20,069520  	21,069995  	22,664019  	28,117076  	26,622080  	28,085979  	29,127277  	34,999448  	33,640651  	37,170521  	57,438037  	24,489090  	23,856944  	25,293810  	62,042918  	0,093453  	0,047354  	-3408,824640  	25627,183752  	-0,018557  	-0,050009  	0,205351  	0,104053  	-3,230527  	5025,284492  	11340,733060  	1,644834  	-0,047959  
8,601000  	17,244439  	34,447529  	22,288444  	1256,670793  	70,609415  	63,197518  	0,004494  	0,006318  	0,003963  	0,004074  	0,004245  	0,000001  	-0,000000  	23,293515  	20,054496  	21,075086  	22,662558  	28,121914  	26,623892  	28,073603  	29,109557  	35,002061  	33,635635  	37,173463  	57,430850  	24,485975  	23,836427  	25,288373  	62,049149  	0,066706  	0,033801  	-2432,340716  	25619,108878  	-0,018552  	-0,049991  	0,220249  	0,111602  	-3,462737  	4974,987902  	11561,745281  	1,676889  	-0,047944  
9,601000  	17,245266  	34,451504  	22,290102  	1256,670793  	70,611440  	63,195373  	0,004498  	0,006326  	0,003966  	0,004096  	0,004215  	-0,000000  	-0,000000  	23,301737  	20,058488  	21,067464  	22,665172  	28,126658  	26,615369  	28,077934  	29,109352  	34,997324  	33,628705  	37,164829  	57,430980  	24,491407  	23,827527  	25,288866  	62,048605  	0,084486  	0,042810  	-3081,221992  	25624,436442  	-0,018555  	-0,050003  	0,196565  	0,099601  	-3,092126  	4991,511721  	11655,057629  	1,690423  	-0,047954  
10,600000  	17,236315  	34,448299  	22,290409  	1256,670793  	70,614867  	63,179148  	0,004493  	0,006321  	0,003963  	0,004095  	0,004234  	-0,000001  	-0,000000  	23,293298  	20,067002  	21,062440  	22,668069  	28,120121  	26,617347  	28,080277  	29,113335  	34,987320  	33,632525  	37,160357  	57,429018  	24,502684  	23,830314  	25,291870  	62,043274  	0,083780  	0,042452  	-3056,481490  	25629,548955  	-0,018559  	-0,050014  	0,211278  	0,107056  	-3,332370  	4979,967615  	11544,876329  	1,674443  	-0,047963  
11,601000  	17,230061  	34,443400  	22,290869  	1256,670793  	70,612998  	63,184401  	0,004479  	0,006326  	0,003962  	0,004119  	0,004257  	0,000001  	-0,000000  	23,297711  	20,072733  	21,063384  	22,668318  	28,122411  	26,627798  	28,087761  	29,123922  	34,990911  	33,642161  	37,168824  	57,430485  	24,510116  	23,834065  	25,300819  	62,052650  	0,102787  	0,052083  	-3750,192797  	25617,506462  	-0,018550  	-0,049988  	0,229760  	0,116421  	-3,620413  	4992,497194  	11256,564828  	1,632627  	-0,047941  
12,599000  	17,225891  	34,445434  	22,290133  	1256,670793  	70,608387  	63,188069  	0,004491  	0,006327  	0,003963  	0,004091  	0,004245  	-0,000000  	-0,000000  	23,304369  	20,076018  	21,061560  	22,664297  	28,122807  	26,627011  	28,096358  	29,132737  	34,999403  	33,641933  	37,171710  	57,432377  	24,513868  	23,841218  	25,305878  	62,057643  	0,080642  	0,040862  	-2943,288126  	25623,769333  	-0,018555  	-0,050001  	0,219913  	0,111432  	-3,461385  	4993,873884  	11495,646386  	1,667303  	-0,047953  
13,601000  	17,219607  	34,457944  	22,291637  	57,696365  	70,603994  	63,201403  	0,004500  	0,006322  	0,003963  	0,004071  	0,004242  	-0,000000  	-0,000000  	23,309286  	20,076076  	21,068290  	22,665978  	28,118676  	26,623798  	28,094824  	29,129142  	35,006695  	33,646900  	37,171449  	57,435571  	24,520277  	23,851843  	25,304562  	62,058202  	0,064040  	0,032450  	-2339,906920  	1925,570254  	-0,054077  	-0,050001  	0,218269  	0,110598  	-3,427307  	4982,699772  	11700,834697  	1,697063  	-0,047953  
14,601000  	17,218810  	34,457636  	22,292681  	1256,670793  	70,603122  	63,198606  	0,004495  	0,006316  	0,003963  	0,004091  	0,004245  	-0,000000  	-0,000000  	23,315102  	20,070788  	21,073243  	22,668373  	28,123376  	26,626058  	28,089354  	29,126338  	35,005552  	33,656518  	37,176945  	57,442712  	24,518306  	23,857518  	25,300932  	62,063176  	0,080340  	0,040709  	-2935,548704  	25623,896677  	-0,018555  	-0,050002  	0,220288  	0,111621  	-3,459901  	4969,968571  	11591,684317  	1,681232  	-0,047953  
15,600000  	17,212464  	34,451350  	22,292773  	1256,670793  	70,604586  	63,190400  	0,004479  	0,006329  	0,003965  	0,004080  	0,004230  	0,000000  	-0,000000  	23,311346  	20,063008  	21,069082  	22,667204  	28,123952  	26,623050  	28,083691  	29,118762  	34,995467  	33,647830  	37,174019  	57,445861  	24,513204  	23,855166  	25,300538  	62,062865  	0,071750  	0,036356  	-2621,691135  	25621,461916  	-0,018553  	-0,049997  	0,208393  	0,105594  	-3,277351  	4997,361593  	11244,582153  	1,630889  	-0,047948  
16,600000  	17,205229  	34,446235  	22,293510  	57,696365  	70,602343  	63,190151  	0,004487  	0,006330  	0,003966  	0,004142  	0,004281  	-0,000000  	-0,000000  	23,302194  	20,059483  	21,069337  	22,668808  	28,123543  	26,619877  	28,078057  	29,109750  	34,993452  	33,634776  	37,164534  	57,437898  	24,514498  	23,859877  	25,299248  	62,057358  	0,122023  	0,061830  	-4459,193710  	1925,493789  	-0,054077  	-0,050002  	0,248624  	0,125979  	-3,909001  	5001,143600  	11420,318643  	1,656377  	-0,047953  
17,600000  	17,215591  	34,450333  	22,292926  	1256,670793  	70,599072  	63,187603  	0,004499  	0,006322  	0,003964  	0,004085  	0,004238  	-0,000000  	-0,000001  	23,296770  	20,064108  	21,070124  	22,672645  	28,131031  	26,626575  	28,081241  	29,116542  	35,000480  	33,633851  	37,161222  	57,430212  	24,513611  	23,879160  	25,298666  	62,056361  	0,075567  	0,038290  	-2760,497215  	25623,774237  	-0,018555  	-0,050002  	0,214602  	0,108741  	-3,373768  	4983,564979  	11671,905398  	1,692867  	-0,047953  
18,604000  	17,221232  	34,453846  	22,290532  	1256,670793  	70,597016  	63,196181  	0,004497  	0,006334  	0,003962  	0,004108  	0,004226  	-0,000001  	-0,000000  	23,298366  	20,072899  	21,066536  	22,675497  	28,125553  	26,632072  	28,092397  	29,120480  	35,000521  	33,636381  	37,160316  	57,431908  	24,518380  	23,895089  	25,306162  	62,059991  	0,094429  	0,047848  	-3449,102270  	25627,276432  	-0,018557  	-0,050009  	0,205261  	0,104007  	-3,222294  	5008,462131  	11625,860008  	1,686188  	-0,047959  
19,600000  	17,233740  	34,448484  	22,291637  	1256,670793  	70,596081  	63,193975  	0,004483  	0,006315  	0,003962  	0,004107  	0,004252  	0,000000  	-0,000000  	23,303077  	20,078939  	21,065349  	22,671770  	28,127667  	26,630569  	28,098044  	29,128079  	34,996562  	33,651260  	37,170024  	57,431174  	24,530410  	23,906839  	25,301249  	62,061807  	0,093145  	0,047197  	-3398,698914  	25620,446186  	-0,018553  	-0,049994  	0,225993  	0,114512  	-3,548353  	4968,809774  	11327,966604  	1,642983  	-0,047947  
20,600000  	17,252502  	34,439549  	22,292312  	1256,670793  	70,593527  	63,197394  	0,004489  	0,006334  	0,003964  	0,004078  	0,004259  	-0,000001  	-0,000000  	23,302793  	20,084715  	21,073139  	22,668620  	28,134524  	26,622106  	28,092849  	29,134213  	35,000578  	33,653414  	37,171480  	57,440482  	24,538529  	23,919728  	25,301780  	62,058071  	0,069817  	0,035377  	-2543,386016  	25629,387636  	-0,018559  	-0,050014  	0,231710  	0,117409  	-3,635193  	5008,146610  	11451,945280  	1,660964  	-0,047963  
21,602000  	17,248148  	34,442353  	22,292343  	57,696365  	70,590224  	63,195995  	0,004497  	0,006331  	0,003960  	0,004072  	0,004254  	0,000000  	-0,000000  	23,290527  	20,065483  	21,070922  	22,650328  	28,117850  	26,608983  	28,076239  	29,122536  	34,992778  	33,641650  	37,166077  	57,434115  	24,522474  	23,919023  	25,290662  	62,056139  	0,065015  	0,032944  	-2369,454215  	1925,407954  	-0,054073  	-0,049998  	0,227080  	0,115063  	-3,561636  	5002,036397  	11629,898954  	1,686774  	-0,047950  
22,612000  	17,227424  	34,451288  	22,291913  	657,183579  	70,592281  	63,193260  	0,004495  	0,006324  	0,003963  	0,004089  	0,004218  	-0,000000  	-0,000000  	23,296845  	20,065555  	21,071656  	22,662859  	28,122186  	26,610713  	28,075317  	29,137713  	34,995294  	33,635970  	37,174802  	57,443576  	24,526024  	23,920062  	25,302326  	62,056575  	0,078996  	0,040028  	-2883,929897  	18569,212477  	-0,027630  	-0,050002  	0,198861  	0,100764  	-3,121052  	4988,369245  	11601,026143  	1,682587  	-0,047953  
23,602000  	17,214273  	34,448145  	22,292650  	657,183579  	70,595614  	63,183997  	0,004490  	0,006330  	0,003966  	0,004073  	0,004243  	0,000000  	-0,000000  	23,296262  	20,060300  	21,054422  	22,672720  	28,126506  	26,613365  	28,068030  	29,122150  	34,991415  	33,625634  	37,159549  	57,439736  	24,529391  	23,925204  	25,303339  	62,044964  	0,065759  	0,033320  	-2402,083089  	18566,880283  	-0,027626  	-0,049995  	0,218800  	0,110868  	-3,439830  	5000,748138  	11489,884534  	1,666467  	-0,047947  
24,600000  	17,198515  	34,439826  	22,291852  	1256,670793  	70,599103  	63,192327  	0,004484  	0,006326  	0,003964  	0,004092  	0,004289  	-0,000000  	-0,000000  	23,300384  	20,071457  	21,059600  	22,678464  	28,128983  	26,625894  	28,081959  	29,114238  	34,989616  	33,631612  	37,165556  	57,438896  	24,543388  	23,928331  	25,312918  	62,045848  	0,081283  	0,041187  	-2970,464474  	25624,054961  	-0,018555  	-0,050002  	0,255051  	0,129236  	-4,007119  	4992,475970  	11354,466887  	1,646826  	-0,047953  
25,604000  	17,195971  	34,440843  	22,290747  	956,927186  	70,601471  	63,187603  	0,004490  	0,006323  	0,003961  	0,004085  	0,004221  	-0,000000  	-0,000000  	23,300520  	20,070797  	21,060131  	22,677801  	28,131010  	26,629715  	28,093015  	29,126823  	35,000158  	33,643878  	37,161922  	57,432709  	24,549320  	23,937147  	25,302630  	62,063428  	0,075522  	0,038267  	-2760,483967  	22584,048722  	-0,022200  	-0,050001  	0,200951  	0,101823  	-3,160180  	4985,791312  	11480,119042  	1,665050  	-0,047952  
26,601000  	17,212954  	34,450518  	22,290562  	357,439972  	70,602406  	63,186857  	0,004499  	0,006339  	0,003965  	0,004069  	0,004255  	0,000000  	-0,000000  	23,289198  	20,071008  	21,062839  	22,662089  	28,123986  	26,620417  	28,089912  	29,114513  	34,985941  	33,635354  	37,158589  	57,431366  	24,552372  	23,927788  	25,293283  	62,047878  	0,062850  	0,031846  	-2296,306583  	12630,566486  	-0,036569  	-0,049996  	0,227846  	0,115451  	-3,583950  	5019,000248  	11685,999340  	1,694911  	-0,047948  
27,601000  	17,217001  	34,452829  	22,290654  	1256,670793  	70,603776  	63,192016  	0,004496  	0,006305  	0,003966  	0,004108  	0,004243  	0,000001  	-0,000000  	23,297156  	20,078061  	21,069524  	22,659056  	28,123958  	26,625587  	28,088865  	29,123905  	34,999623  	33,651341  	37,162517  	57,432764  	24,556115  	23,942385  	25,303480  	62,053983  	0,093981  	0,047621  	-3433,411802  	25619,384185  	-0,018552  	-0,049992  	0,218985  	0,110961  	-3,442807  	4947,377694  	11613,383056  	1,684379  	-0,047944  
28,599000  	17,202960  	34,447159  	22,290409  	57,696365  	70,604462  	63,192576  	0,004478  	0,006335  	0,003961  	0,004128  	0,004247  	0,000001  	-0,000000  	23,307877  	20,061235  	21,068044  	22,661129  	28,116086  	26,607975  	28,077460  	29,120011  	35,001014  	33,643510  	37,170439  	57,439708  	24,548846  	23,927576  	25,298430  	62,051440  	0,110047  	0,055762  	-4022,290850  	1925,275427  	-0,054066  	-0,049991  	0,222071  	0,112525  	-3,491386  	5010,259751  	11235,063799  	1,629508  	-0,047943  
29,599000  	17,191648  	34,443708  	22,289948  	57,696365  	70,605054  	63,189592  	0,004490  	0,006342  	0,003965  	0,004042  	0,004241  	0,000000  	-0,000000  	23,295330  	20,057520  	21,068537  	22,658153  	28,119482  	26,608695  	28,078013  	29,116171  	34,994472  	33,644994  	37,165795  	57,435509  	24,549879  	23,933606  	25,291918  	62,050363  	0,040300  	0,020420  	-1473,679153  	1925,435780  	-0,054070  	-0,049995  	0,217363  	0,110139  	-3,419006  	5026,097348  	11488,895981  	1,666323  	-0,047947  
30,602000  	17,186559  	34,447283  	22,288229  	1256,670793  	70,607234  	63,184557  	0,004500  	0,006322  	0,003964  	0,004091  	0,004235  	-0,000000  	-0,000000  	23,287154  	20,049581  	21,053048  	22,656610  	28,112869  	26,611120  	28,068254  	29,107505  	34,979767  	33,621137  	37,166158  	57,432343  	24,537601  	23,927675  	25,291565  	62,049087  	0,080517  	0,040798  	-2945,760611  	25624,257128  	-0,018555  	-0,050002  	0,212736  	0,107795  	-3,349484  	4983,582665  	11704,901887  	1,697652  	-0,047953  
31,601000  	17,192261  	34,448115  	22,287768  	357,439972  	70,610287  	63,195249  	0,004498  	0,006328  	0,003961  	0,004117  	0,004251  	0,000000  	-0,000000  	23,294511  	20,052399  	21,054627  	22,658381  	28,117335  	26,615276  	28,074419  	29,106370  	34,979186  	33,629396  	37,150370  	57,443860  	24,546575  	23,937263  	25,291014  	62,058723  	0,101456  	0,051408  	-3710,785787  	12631,414476  	-0,036571  	-0,049999  	0,225015  	0,114017  	-3,539170  	4995,549116  	11655,961449  	1,690554  	-0,047950  
32,602000  	17,203727  	34,441151  	22,288444  	956,927186  	70,614774  	63,191768  	0,004480  	0,006343  	0,003966  	0,004051  	0,004247  	-0,000001  	-0,000000  	23,299877  	20,066565  	21,056553  	22,668848  	28,132091  	26,623463  	28,087158  	29,121002  	34,991435  	33,639939  	37,162097  	57,441609  	24,566120  	23,936281  	25,301027  	62,062542  	0,047921  	0,024282  	-1750,850002  	22588,498024  	-0,022205  	-0,050011  	0,222182  	0,112581  	-3,498371  	5028,305995  	11258,245368  	1,632870  	-0,047961  
33,599000  	17,217522  	34,432831  	22,287431  	-242,047242  	70,620163  	63,180423  	0,004488  	0,006317  	0,003963  	0,004111  	0,004222  	-0,000000  	-0,000000  	23,294571  	20,070521  	21,063598  	22,662643  	28,123167  	26,632397  	28,096871  	29,131699  	34,996397  	33,641037  	37,157948  	57,438221  	24,559762  	23,931812  	25,295808  	62,056514  	0,096385  	0,048839  	-3517,029720  	-27019,826517  	-0,103720  	-0,050003  	0,202288  	0,102501  	-3,192296  	4971,825617  	11446,924843  	1,660236  	-0,047954  
34,600000  	17,226106  	34,430674  	22,286632  	357,439972  	70,622905  	63,189747  	0,004498  	0,006327  	0,003964  	0,004093  	0,004264  	-0,000001  	-0,000000  	23,301467  	20,063424  	21,068048  	22,657545  	28,117764  	26,625232  	28,093635  	29,134903  	35,003586  	33,651255  	37,160543  	57,448490  	24,556683  	23,933109  	25,300977  	62,062673  	0,081832  	0,041465  	-2984,142186  	12633,637935  	-0,036578  	-0,050008  	0,234955  	0,119054  	-3,704549  	4993,777671  	11655,721372  	1,690519  	-0,047959  
35,602000  	17,240453  	34,432431  	22,285343  	1256,670793  	70,622780  	63,202118  	0,004497  	0,006328  	0,003965  	0,004093  	0,004255  	-0,000001  	-0,000000  	23,302944  	20,059874  	21,067876  	22,664206  	28,116737  	26,621021  	28,089724  	29,135467  	35,005701  	33,653821  	37,167022  	57,451396  	24,555874  	23,926389  	25,304734  	62,062980  	0,081880  	0,041489  	-2983,686923  	25628,405775  	-0,018558  	-0,050011  	0,228012  	0,115535  	-3,589032  	4996,751775  	11627,738259  	1,686461  	-0,047961  
36,601000  	17,252103  	34,432307  	22,283194  	1256,670793  	70,618605  	63,196896  	0,004489  	0,006320  	0,003961  	0,004101  	0,004240  	0,000000  	-0,000000  	23,299288  	20,062139  	21,059508  	22,655628  	28,116960  	26,610965  	28,083508  	29,124955  	34,994223  	33,633031  	37,168380  	57,441373  	24,555255  	23,920228  	25,299614  	62,056709  	0,088740  	0,044965  	-3231,458436  	25622,872735  	-0,018554  	-0,049999  	0,216600  	0,109753  	-3,409875  	4978,380106  	11462,854669  	1,662547  	-0,047951  
37,601000  	17,247842  	34,425898  	22,283654  	-242,047242  	70,618045  	63,196990  	0,004485  	0,006328  	0,003964  	0,004061  	0,004243  	-0,000000  	-0,000000  	23,299219  	20,061318  	21,060885  	22,662217  	28,124068  	26,616865  	28,078499  	29,117858  	34,993471  	33,627337  	37,165929  	57,440172  	24,559891  	23,918273  	25,307208  	62,061376  	0,055914  	0,028332  	-2035,856382  	-27019,062374  	-0,103718  	-0,050002  	0,219016  	0,110977  	-3,447614  	4995,263308  	11385,641614  	1,651348  	-0,047953  
38,603000  	17,246615  	34,428240  	22,283163  	357,439972  	70,620724  	63,208428  	0,004491  	0,006322  	0,003965  	0,004107  	0,004240  	0,000001  	-0,000000  	23,294371  	20,064204  	21,064959  	22,667099  	28,128594  	26,626533  	28,082578  	29,113446  	34,991643  	33,633450  	37,161443  	57,439167  	24,559228  	23,912420  	25,308446  	62,058723  	0,093535  	0,047395  	-3406,349531  	12629,944716  	-0,036567  	-0,049991  	0,216465  	0,109685  	-3,403447  	4983,744670  	11513,687480  	1,669919  	-0,047944  
39,599000  	17,252042  	34,431753  	22,282334  	1256,670793  	70,618637  	63,207278  	0,004497  	0,006331  	0,003965  	0,004121  	0,004246  	0,000001  	-0,000000  	23,284816  	20,064843  	21,058817  	22,663740  	28,120257  	26,620314  	28,085338  	29,110052  	34,988186  	33,633968  	37,152341  	57,431690  	24,558150  	23,896093  	25,299389  	62,055315  	0,104324  	0,052862  	-3798,824221  	25618,675041  	-0,018551  	-0,049990  	0,221004  	0,111985  	-3,474373  	5002,694322  	11634,601642  	1,687456  	-0,047943  
40,601000  	17,255659  	34,432123  	22,282641  	1256,670793  	70,612717  	63,194285  	0,004495  	0,006324  	0,003965  	0,004090  	0,004227  	-0,000001  	-0,000000  	23,289620  	20,066881  	21,057497  	22,665417  	28,115744  	26,618581  	28,089458  	29,121645  	34,993463  	33,634311  	37,151743  	57,430884  	24,568066  	23,901582  	25,304540  	62,056880  	0,079623  	0,040345  	-2898,821902  	25628,690609  	-0,018558  	-0,050012  	0,205942  	0,104352  	-3,240668  	4987,948315  	11593,647301  	1,681516  	-0,047961  
41,600000  	17,258142  	34,432307  	22,283532  	1256,670793  	70,606206  	63,195684  	0,004480  	0,006319  	0,003959  	0,004086  	0,004252  	-0,000000  	-0,000000  	23,292002  	20,066026  	21,057040  	22,656686  	28,115373  	26,616459  	28,085214  	29,125796  	34,993113  	33,637511  	37,157078  	57,434812  	24,567900  	23,911556  	25,312167  	62,051811  	0,075950  	0,038485  	-2764,748038  	25625,117177  	-0,018556  	-0,050004  	0,226154  	0,114594  	-3,554927  	4976,138209  	11268,858191  	1,634410  	-0,047955  
42,601000  	17,247596  	34,434588  	22,282181  	1256,670793  	70,600100  	63,195684  	0,004489  	0,006334  	0,003964  	0,004121  	0,004232  	0,000000  	-0,000000  	23,287520  	20,054637  	21,054833  	22,649009  	28,111156  	26,605248  	28,073614  	29,116308  	34,992616  	33,638697  	37,156525  	57,438545  	24,558497  	23,907043  	25,308767  	62,048539  	0,104857  	0,053132  	-3819,879704  	25623,080162  	-0,018554  	-0,049999  	0,209827  	0,106321  	-3,295567  	5008,035541  	11469,026065  	1,663442  	-0,047951  
43,601000  	17,232329  	34,444201  	22,282365  	357,439972  	70,596518  	63,191674  	0,004499  	0,006324  	0,003963  	0,004089  	0,004220  	-0,000000  	-0,000000  	23,293702  	20,048049  	21,059212  	22,659705  	28,113795  	26,605193  	28,073945  	29,113182  	34,997377  	33,634047  	37,161353  	57,440741  	24,558122  	23,914813  	25,307699  	62,052830  	0,078366  	0,039709  	-2858,968763  	12632,812638  	-0,036575  	-0,050004  	0,200352  	0,101520  	-3,146926  	4987,342034  	11675,443005  	1,693380  	-0,047955  
44,600000  	17,219331  	34,449316  	22,281874  	956,927186  	70,597016  	63,199943  	0,004496  	0,006331  	0,003963  	0,004103  	0,004227  	-0,000001  	-0,000000  	23,289126  	20,048056  	21,056097  	22,661402  	28,115190  	26,608369  	28,069463  	29,102591  	34,985966  	33,624892  	37,162929  	57,437260  	24,554622  	23,915743  	25,304940  	62,055600  	0,090087  	0,045648  	-3290,015402  	22586,788789  	-0,022203  	-0,050007  	0,206234  	0,104500  	-3,235921  	5003,017625  	11610,600986  	1,683975  	-0,047957  
45,603000  	17,208570  	34,445557  	22,281260  	57,696365  	70,598574  	63,200688  	0,004481  	0,006314  	0,003963  	0,004088  	0,004242  	-0,000000  	-0,000000  	23,287397  	20,055190  	21,056041  	22,663362  	28,115419  	26,615526  	28,070051  	29,106607  	34,980592  	33,623199  	37,154122  	57,436896  	24,563210  	23,919064  	25,303469  	62,058852  	0,078321  	0,039686  	-2861,487410  	1926,158283  	-0,054077  	-0,050001  	0,217648  	0,110284  	-3,415386  	4964,850198  	11300,160018  	1,638950  	-0,047952  
46,601000  	17,220710  	34,440257  	22,281628  	1256,670793  	70,597701  	63,204605  	0,004489  	0,006333  	0,003964  	0,004105  	0,004205  	0,000001  	-0,000000  	23,289454  	20,067706  	21,051545  	22,673739  	28,124806  	26,630787  	28,082145  	29,119017  	34,988931  	33,637753  	37,162912  	57,430026  	24,572602  	23,912614  	25,312854  	62,061737  	0,091895  	0,046564  	-3354,008526  	25615,783949  	-0,018549  	-0,049983  	0,188900  	0,095717  	-2,962338  	5007,768126  	11461,336534  	1,662326  	-0,047937  
47,600000  	17,241772  	34,442383  	22,281997  	357,439972  	70,607203  	63,194472  	0,004499  	0,006331  	0,003963  	0,004080  	0,004289  	-0,000001  	-0,000000  	23,290438  	20,070073  	21,059549  	22,663194  	28,120487  	26,630359  	28,088984  	29,124895  	34,994300  	33,647476  	37,155884  	57,440340  	24,577001  	23,897158  	25,319371  	62,054682  	0,071148  	0,036051  	-2593,923592  	12634,612764  	-0,036580  	-0,050012  	0,254973  	0,129197  	-4,009129  	5001,850339  	11685,561552  	1,694847  	-0,047961  
48,599000  	17,255445  	34,447252  	22,281751  	-242,047242  	70,618356  	63,191799  	0,004496  	0,006325  	0,003963  	0,004108  	0,004235  	0,000001  	-0,000001  	23,284663  	20,060353  	21,058122  	22,651673  	28,111820  	26,612294  	28,079739  	29,121677  	34,989492  	33,638635  	37,164734  	57,437592  	24,576061  	23,876602  	25,305962  	62,050934  	0,093817  	0,047538  	-3418,646624  	-27013,298383  	-0,103697  	-0,049990  	0,212528  	0,107690  	-3,347964  	4988,983309  	11621,637474  	1,685576  	-0,047943  
49,600000  	17,242753  	34,449778  	22,281782  	1256,670793  	70,625304  	63,199476  	0,004485  	0,006337  	0,003966  	0,004091  	0,004260  	-0,000001  	-0,000000  	23,290152  	20,056322  	21,068340  	22,651171  	28,117861  	26,610774  	28,081395  	29,112410  	34,989735  	33,650711  	37,171838  	57,441949  	24,575801  	23,875039  	25,306643  	62,053157  	0,080169  	0,040622  	-2923,895997  	25627,737198  	-0,018558  	-0,050010  	0,232412  	0,117765  	-3,660844  	5015,634927  	11366,456623  	1,648565  	-0,047960  
50,601000  	17,230061  	34,443431  	22,281536  	1256,670793  	70,628045  	63,200347  	0,004487  	0,006313  	0,003963  	0,004087  	0,004213  	-0,000000  	-0,000000  	23,298464  	20,059616  	21,064917  	22,673196  	28,116759  	26,609498  	28,075448  	29,120444  	35,002369  	33,637316  	37,177032  	57,446619  	24,573230  	23,856212  	25,308888  	62,061118  	0,077205  	0,039120  	-2816,829377  	25626,187776  	-0,018557  	-0,050006  	0,195100  	0,098859  	-3,073891  	4964,263018  	11411,308688  	1,655070  	-0,047957  
51,601000  	17,215070  	34,442969  	22,280431  	1256,670793  	70,630444  	63,201497  	0,004493  	0,006320  	0,003965  	0,004089  	0,004264  	-0,000001  	-0,000000  	23,299980  	20,052769  	21,057453  	22,666381  	28,124467  	26,617790  	28,072192  	29,107576  	34,989746  	33,623716  	37,173292  	57,438070  	24,568319  	23,839560  	25,312596  	62,063253  	0,079130  	0,040096  	-2889,508369  	25626,841030  	-0,018557  	-0,050007  	0,235429  	0,119293  	-3,709914  	4979,325254  	11554,719493  	1,675870  	-0,047958  
52,599000  	17,214211  	34,450980  	22,280431  	1256,670793  	70,630569  	63,208086  	0,004497  	0,006330  	0,003963  	0,004097  	0,004241  	-0,000001  	-0,000000  	23,296183  	20,057857  	21,058357  	22,677491  	28,132872  	26,619090  	28,080997  	29,114429  	34,995683  	33,626805  	37,167136  	57,439338  	24,565634  	23,835543  	25,307920  	62,063012  	0,084829  	0,042983  	-3099,201040  	25627,120613  	-0,018557  	-0,050008  	0,217183  	0,110048  	-3,419429  	5000,563495  	11629,672999  	1,686741  	-0,047958  
53,602000  	17,211973  	34,449378  	22,278681  	1256,670793  	70,627484  	63,205413  	0,004494  	0,006310  	0,003965  	0,004075  	0,004247  	0,000000  	-0,000000  	23,283437  	20,052257  	21,054957  	22,663463  	28,122364  	26,615135  	28,081877  	29,115879  	34,990041  	33,636943  	37,162244  	57,433170  	24,574530  	23,827819  	25,304588  	62,047884  	0,067706  	0,034307  	-2473,717598  	25621,861654  	-0,018553  	-0,049996  	0,221908  	0,112443  	-3,493625  	4956,967834  	11570,409242  	1,678146  	-0,047948  
54,601000  	17,207559  	34,440257  	22,277760  	1256,670793  	70,626363  	63,206967  	0,004482  	0,006356  	0,003962  	0,004117  	0,004255  	0,000001  	-0,000000  	23,292055  	20,072019  	21,060611  	22,665337  	28,126878  	26,617093  	28,086703  	29,117521  	34,991455  	33,637920  	37,162051  	57,440746  	24,576328  	23,828067  	25,305943  	62,061259  	0,101361  	0,051360  	-3702,336339  	25618,894972  	-0,018551  	-0,049990  	0,228247  	0,115655  	-3,592130  	5055,678501  	11304,566140  	1,639589  	-0,047943  
55,601000  	17,208019  	34,438871  	22,277299  	1256,670793  	70,623559  	63,203672  	0,004492  	0,006313  	0,003966  	0,004077  	0,004238  	-0,000000  	-0,000000  	23,305382  	20,070075  	21,059124  	22,663695  	28,127259  	26,623323  	28,091774  	29,129409  	34,998223  	33,651202  	37,163019  	57,446158  	24,572508  	23,820569  	25,316108  	62,072061  	0,069315  	0,035122  	-2531,550451  	25624,754924  	-0,018555  	-0,050003  	0,214615  	0,108747  	-3,377806  	4962,631647  	11536,148818  	1,673177  	-0,047954  
56,604000  	17,211023  	34,447313  	22,276931  	57,696365  	70,623870  	63,199570  	0,004498  	0,006325  	0,003964  	0,004132  	0,004256  	-0,000000  	-0,000000  	23,293089  	20,057599  	21,063213  	22,643776  	28,111451  	26,609464  	28,076205  	29,112605  	34,990724  	33,640638  	37,173716  	57,435899  	24,556103  	23,799978  	25,297889  	62,054376  	0,113625  	0,057575  	-4151,156936  	1926,461852  	-0,054079  	-0,050003  	0,228880  	0,115975  	-3,604471  	4989,391505  	11664,505372  	1,691793  	-0,047954  
57,601000  	17,217216  	34,449717  	22,276255  	956,927186  	70,622500  	63,203704  	0,004496  	0,006323  	0,003964  	0,004084  	0,004245  	-0,000000  	-0,000000  	23,298589  	20,056665  	21,060881  	22,659920  	28,121857  	26,619646  	28,076299  	29,114619  	34,994619  	33,637701  	37,175750  	57,442191  	24,561097  	23,796302  	25,304401  	62,060144  	0,074465  	0,037732  	-2719,914280  	22584,991501  	-0,022201  	-0,050002  	0,220125  	0,111539  	-3,464025  	4984,401887  	11604,217757  	1,683049  	-0,047953  
58,603000  	17,225493  	34,448053  	22,274904  	357,439972  	70,623247  	63,210293  	0,004480  	0,006313  	0,003963  	0,004080  	0,004249  	-0,000000  	-0,000000  	23,295903  	20,054194  	21,058325  	22,663544  	28,118397  	26,614573  	28,079844  	29,105390  	34,994691  	33,632356  	37,172996  	57,440664  	24,558643  	23,801161  	25,311725  	62,062855  	0,071754  	0,036358  	-2619,350319  	12632,826721  	-0,036574  	-0,050002  	0,223274  	0,113134  	-3,510804  	4964,073423  	11273,822140  	1,635130  	-0,047953  
59,598000  	17,223010  	34,446204  	22,273154  	1256,670793  	70,620194  	63,208366  	0,004489  	0,006332  	0,003966  	0,004087  	0,004257  	-0,000000  	-0,000000  	23,301254  	20,058170  	21,057078  	22,662104  	28,111997  	26,622929  	28,084868  	29,103877  	34,999986  	33,627042  	37,176233  	57,447736  	24,567299  	23,810461  	25,314666  	62,064809  	0,077080  	0,039057  	-2813,899957  	25624,992820  	-0,018556  	-0,050003  	0,229757  	0,116420  	-3,612198  	5003,814210  	11456,033653  	1,661557  	-0,047954  
60,601000  	17,220312  	34,449963  	22,272602  	57,696365  	70,612406  	63,203828  	0,004500  	0,006334  	0,003962  	0,004105  	0,004233  	-0,000000  	-0,000000  	23,295638  	20,069162  	21,056477  	22,669104  	28,110241  	26,623521  	28,080932  	29,104824  	34,997254  	33,628699  	37,168802  	57,440845  	24,558561  	23,812856  	25,314512  	62,058738  	0,091538  	0,046383  	-3342,965783  	1926,767979  	-0,054081  	-0,050004  	0,211114  	0,106973  	-3,317645  	5008,991300  	11700,990041  	1,697085  	-0,047955  
61,602000  	17,230950  	34,455109  	22,272172  	-242,047242  	70,606019  	63,201621  	0,004497  	0,006328  	0,003967  	0,004076  	0,004251  	-0,000001  	-0,000000  	23,292790  	20,068577  	21,053580  	22,660294  	28,106645  	26,619641  	28,088538  	29,121084  	34,996213  	33,638474  	37,165423  	57,435979  	24,554450  	23,820648  	25,313162  	62,060897  	0,068352  	0,034634  	-2495,401023  	-27021,669482  	-0,103733  	-0,050008  	0,224827  	0,113921  	-3,531145  	4996,063430  	11642,036973  	1,688535  	-0,047958  
62,601000  	17,250938  	34,451288  	22,271067  	357,439972  	70,604026  	63,208708  	0,004480  	0,006322  	0,003962  	0,004093  	0,004229  	0,000000  	-0,000000  	23,298158  	20,066547  	21,055445  	22,647882  	28,111221  	26,617844  	28,089835  	29,130288  	35,008876  	33,646834  	37,170880  	57,439630  	24,556058  	23,832231  	25,312850  	62,054996  	0,081822  	0,041460  	-2983,015690  	12632,452475  	-0,036573  	-0,050000  	0,207956  	0,105373  	-3,262160  	4982,014964  	11263,809510  	1,633677  	-0,047951  
63,602000  	17,252777  	34,443339  	22,271803  	1256,670793  	70,603963  	63,208148  	0,004489  	0,006332  	0,003969  	0,004103  	0,004215  	0,000001  	-0,000000  	23,302876  	20,059797  	21,058457  	22,646895  	28,119954  	26,614754  	28,089730  	29,129417  	35,004007  	33,641958  	37,176811  	57,439704  	24,546581  	23,838181  	25,311155  	62,059295  	0,089957  	0,045582  	-3277,733023  	25617,776875  	-0,018550  	-0,049987  	0,196513  	0,099575  	-3,082867  	5004,125486  	11465,700290  	1,662959  	-0,047940  
64,599000  	17,244316  	34,442846  	22,270944  	1256,670793  	70,602717  	63,203672  	0,004499  	0,006310  	0,003962  	0,004068  	0,004258  	-0,000000  	-0,000000  	23,299539  	20,056117  	21,063404  	22,657087  	28,116075  	26,610450  	28,084862  	29,115708  	34,995346  	33,638484  	37,180255  	57,440563  	24,533932  	23,831435  	25,310469  	62,064961  	0,061997  	0,031414  	-2260,020405  	25624,766307  	-0,018555  	-0,050002  	0,230895  	0,116996  	-3,623834  	4956,147903  	11669,285732  	1,692487  	-0,047953  
65,601000  	17,244960  	34,447036  	22,270207  	57,696365  	70,598823  	63,205910  	0,004496  	0,006342  	0,003966  	0,004096  	0,004208  	-0,000000  	-0,000000  	23,300657  	20,056478  	21,066502  	22,666200  	28,117323  	26,612826  	28,077704  	29,113747  	34,995059  	33,634554  	37,174924  	57,446402  	24,530070  	23,826407  	25,314338  	62,063118  	0,084709  	0,042923  	-3088,613930  	1926,789838  	-0,054078  	-0,050001  	0,190602  	0,096580  	-2,988966  	5027,267464  	11622,661333  	1,685725  	-0,047952  
66,601000  	17,252747  	34,444325  	22,269470  	1256,670793  	70,597452  	63,219214  	0,004484  	0,006309  	0,003960  	0,004072  	0,004240  	0,000001  	-0,000000  	23,298878  	20,059476  	21,064730  	22,671752  	28,125055  	26,624098  	28,079246  	29,121362  	34,996271  	33,630387  	37,172647  	57,448797  	24,535519  	23,832968  	25,314361  	62,059910  	0,064941  	0,032906  	-2366,370810  	25620,292027  	-0,018552  	-0,049992  	0,216184  	0,109542  	-3,383415  	4954,924022  	11348,747401  	1,645997  	-0,047945  
67,600000  	17,249068  	34,434341  	22,268918  	1256,670793  	70,600038  	63,198730  	0,004487  	0,006332  	0,003966  	0,004100  	0,004271  	-0,000001  	-0,000000  	23,293736  	20,060361  	21,057424  	22,672167  	28,121108  	26,628700  	28,085883  	29,122225  	34,997321  	33,637002  	37,169724  	57,443012  	24,541053  	23,839955  	25,313184  	62,058900  	0,087927  	0,044553  	-3202,799700  	25628,230356  	-0,018558  	-0,050010  	0,240684  	0,121956  	-3,778612  	5005,326729  	11424,089267  	1,656924  	-0,047960  
68,601000  	17,234414  	34,433725  	22,267812  	1256,670793  	70,605521  	63,189405  	0,004495  	0,006331  	0,003962  	0,004076  	0,004229  	0,000001  	-0,000000  	23,290112  	20,060155  	21,050734  	22,661511  	28,120146  	26,622894  	28,090684  	29,122808  	34,998851  	33,643934  	37,164135  	57,442268  	24,538646  	23,840355  	25,317384  	62,059253  	0,068469  	0,034694  	-2496,081112  	25616,122065  	-0,018549  	-0,049983  	0,207517  	0,105150  	-3,264425  	5002,021541  	11586,727429  	1,680513  	-0,047937  
69,604000  	17,230735  	34,441366  	22,266277  	956,927186  	70,613995  	63,193042  	0,004496  	0,006313  	0,003964  	0,004083  	0,004254  	0,000000  	-0,000000  	23,284877  	20,063162  	21,054692  	22,649570  	28,125017  	26,618089  	28,092896  	29,122215  	35,002512  	33,643508  	37,170254  	57,446923  	24,533069  	23,833583  	25,315962  	62,057816  	0,073865  	0,037428  	-2694,564995  	22582,458506  	-0,022198  	-0,049994  	0,227109  	0,115078  	-3,574961  	4964,105965  	11621,227931  	1,685517  	-0,047947  
70,601000  	17,237357  	34,443339  	22,266830  	357,439972  	70,614369  	63,193788  	0,004492  	0,006331  	0,003966  	0,004107  	0,004231  	-0,000000  	-0,000000  	23,289166  	20,058049  	21,060524  	22,649625  	28,119993  	26,610943  	28,086127  	29,121019  	35,001615  	33,640195  	37,172805  	57,443181  	24,527011  	23,815773  	25,309244  	62,056234  	0,093529  	0,047392  	-3410,949004  	12633,349910  	-0,036575  	-0,050003  	0,208907  	0,105855  	-3,288266  	5002,896652  	11534,821332  	1,672984  	-0,047954  
71,602000  	17,249773  	34,440565  	22,265540  	357,439972  	70,610537  	63,194130  	0,004481  	0,006322  	0,003960  	0,004084  	0,004204  	-0,000001  	-0,000000  	23,289493  	20,054392  	21,060584  	22,657960  	28,123503  	26,606902  	28,075854  	29,119434  	34,994427  	33,631185  	37,175564  	57,449612  	24,519438  	23,802348  	25,309719  	62,059190  	0,074698  	0,037850  	-2721,792754  	12634,898551  	-0,036579  	-0,050009  	0,187937  	0,095229  	-2,956527  	4982,026283  	11281,885909  	1,636299  	-0,047959  
72,600000  	17,246156  	34,438840  	22,265233  	-242,047242  	70,610163  	63,189716  	0,004489  	0,006328  	0,003968  	0,004058  	0,004250  	-0,000000  	-0,000000  	23,295849  	20,056151  	21,061389  	22,661704  	28,122812  	26,610806  	28,081133  	29,114112  	34,996538  	33,630992  	37,179707  	57,455960  	24,521194  	23,807042  	25,312138  	62,065902  	0,053671  	0,027195  	-1955,838380  	-27019,000662  	-0,103725  	-0,050002  	0,224041  	0,113523  	-3,526417  	4995,181244  	11453,293949  	1,661160  	-0,047954  
73,687000  	17,238123  	34,450456  	22,264282  	57,696365  	70,614524  	63,185147  	0,004499  	0,006336  	0,003962  	0,004130  	0,004227  	0,000001  	-0,000000  	23,296472  	20,055830  	21,058450  	22,659000  	28,122753  	26,610764  	28,072268  	29,107996  	34,997877  	33,621269  	37,176349  	57,441496  	24,526361  	23,796474  	25,305384  	62,051394  	0,112081  	0,056792  	-4089,051308  	1926,726872  	-0,054067  	-0,049989  	0,205925  	0,104344  	-3,245180  	5012,691951  	11686,832549  	1,695032  	-0,047942  
74,603000  	17,245297  	34,460933  	22,264896  	657,183579  	70,615708  	63,194658  	0,004497  	0,006320  	0,003966  	0,004072  	0,004260  	-0,000001  	-0,000000  	23,292306  	20,057547  	21,058404  	22,666166  	28,126534  	26,620540  	28,086926  	29,115965  	34,990264  	33,627007  	37,166337  	57,441805  	24,534802  	23,804071  	25,311347  	62,064119  	0,065155  	0,033015  	-2377,507607  	18573,821287  	-0,027635  	-0,050012  	0,232535  	0,117827  	-3,660425  	4979,541732  	11626,926233  	1,686343  	-0,047962  
75,601000  	17,237756  	34,459269  	22,265540  	657,183579  	70,612842  	63,194099  	0,004479  	0,006312  	0,003965  	0,004128  	0,004257  	0,000000  	-0,000000  	23,288675  	20,072252  	21,060928  	22,664608  	28,121728  	26,618716  	28,090127  	29,127238  	34,995195  	33,639688  	37,172328  	57,434387  	24,539312  	23,799496  	25,320392  	62,062852  	0,110121  	0,055799  	-4019,681291  	18568,945861  	-0,027628  	-0,049997  	0,230115  	0,116601  	-3,621203  	4962,464690  	11255,689252  	1,632500  	-0,047949  
76,601000  	17,228007  	34,456064  	22,264619  	1256,670793  	70,612531  	63,215670  	0,004488  	0,006331  	0,003961  	0,004103  	0,004239  	-0,000000  	-0,000000  	23,282755  	20,046171  	21,051327  	22,653154  	28,109209  	26,607306  	28,075310  	29,107525  	34,985462  	33,636970  	37,158830  	57,423064  	24,523661  	23,784702  	25,298609  	62,052197  	0,090424  	0,045818  	-3301,946063  	25624,744792  	-0,018555  	-0,050002  	0,215898  	0,109397  	-3,387462  	5002,260658  	11447,044881  	1,660253  	-0,047953  
77,601000  	17,228620  	34,456465  	22,264650  	-242,047242  	70,613372  	63,207060  	0,004500  	0,006322  	0,003966  	0,004074  	0,004239  	-0,000001  	-0,000000  	23,296308  	20,069510  	21,068035  	22,664919  	28,122157  	26,617556  	28,079171  	29,130056  	35,004185  	33,650190  	37,182398  	57,446253  	24,541297  	23,793225  	25,319885  	62,057820  	0,066512  	0,033702  	-2428,733457  	-27023,505289  	-0,103743  	-0,050012  	0,215602  	0,109247  	-3,387134  	4983,168101  	11702,663520  	1,697328  	-0,047962  
78,600000  	17,232850  	34,453075  	22,264773  	357,439972  	70,615739  	63,200844  	0,004497  	0,006328  	0,003964  	0,004088  	0,004214  	0,000001  	-0,000000  	23,296373  	20,068241  	21,058659  	22,659995  	28,121673  	26,605460  	28,076586  	29,116338  	35,008092  	33,637629  	37,180813  	57,443827  	24,548554  	23,790511  	25,318061  	62,055829  	0,078021  	0,039534  	-2847,759446  	12628,775051  	-0,036561  	-0,049982  	0,195562  	0,099093  	-3,075861  	4995,977829  	11629,411738  	1,686704  	-0,047936  
79,601000  	17,227240  	34,447252  	22,266062  	1256,670793  	70,617390  	63,206936  	0,004481  	0,006331  	0,003965  	0,004076  	0,004218  	-0,000001  	-0,000000  	23,292983  	20,061366  	21,068349  	22,660194  	28,123251  	26,610372  	28,071371  	29,113089  	34,996635  	33,626844  	37,178862  	57,451793  	24,536658  	23,786920  	25,312399  	62,053014  	0,068525  	0,034722  	-2501,133200  	25630,798165  	-0,018560  	-0,050015  	0,198557  	0,100610  	-3,121103  	5003,054412  	11291,270102  	1,637660  	-0,047964  
80,604000  	17,220373  	34,445773  	22,265694  	1256,670793  	70,616269  	63,198855  	0,004488  	0,006315  	0,003963  	0,004095  	0,004224  	0,000001  	-0,000000  	23,299273  	20,054997  	21,056886  	22,670271  	28,120030  	26,616200  	28,066593  	29,114945  	34,993216  	33,628252  	37,179364  	57,442148  	24,534064  	23,792526  	25,313128  	62,062765  	0,083813  	0,042469  	-3060,081079  	25619,429601  	-0,018551  	-0,049990  	0,203876  	0,103305  	-3,207710  	4968,262919  	11435,803621  	1,658623  	-0,047943  
81,600000  	17,214978  	34,455294  	22,267413  	1256,670793  	70,616705  	63,197207  	0,004497  	0,006322  	0,003963  	0,004130  	0,004247  	-0,000000  	-0,000000  	23,282367  	20,051156  	21,056514  	22,657187  	28,114289  	26,613312  	28,081252  	29,108152  	34,984139  	33,635993  	37,161157  	57,434328  	24,547143  	23,804256  	25,307880  	62,057006  	0,111714  	0,056606  	-4082,291548  	25624,952350  	-0,018555  	-0,050002  	0,221662  	0,112318  	-3,488539  	4983,347085  	11626,085963  	1,686221  	-0,047953  
82,601000  	17,213751  	34,461580  	22,268703  	1256,670793  	70,618699  	63,211630  	0,004497  	0,006335  	0,003965  	0,004097  	0,004247  	-0,000001  	-0,000000  	23,289857  	20,066581  	21,058391  	22,658081  	28,122336  	26,615307  	28,088654  	29,119316  	34,994858  	33,638507  	37,177439  	57,436458  	24,539159  	23,816642  	25,310471  	62,056871  	0,085426  	0,043286  	-3123,043387  	25627,195927  	-0,018557  	-0,050007  	0,221598  	0,112285  	-3,481689  	5010,331203  	11637,341346  	1,687854  	-0,047958  
83,600000  	17,211636  	34,463891  	22,269532  	357,439972  	70,621690  	63,194254  	0,004489  	0,006320  	0,003965  	0,004071  	0,004257  	0,000000  	-0,000000  	23,296930  	20,065250  	21,062652  	22,651296  	28,117627  	26,607711  	28,092798  	29,125475  	35,000379  	33,651751  	37,182520  	57,439254  	24,550669  	23,813890  	25,320728  	62,069701  	0,063838  	0,032347  	-2334,404660  	12632,340885  	-0,036572  	-0,049999  	0,229518  	0,116298  	-3,616029  	4977,969080  	11469,011942  	1,663440  	-0,047950  
84,600000  	17,210349  	34,454709  	22,269900  	956,927186  	70,621814  	63,207123  	0,004482  	0,006332  	0,003960  	0,004077  	0,004267  	-0,000000  	-0,000000  	23,298984  	20,064048  	21,061821  	22,648729  	28,121365  	26,604563  	28,084429  	29,126967  	35,002302  	33,645146  	37,185729  	57,449032  	24,535161  	23,806203  	25,319988  	62,063849  	0,068633  	0,034777  	-2508,587422  	22585,427591  	-0,022201  	-0,050002  	0,237757  	0,120473  	-3,739411  	5004,587448  	11304,340185  	1,639556  	-0,047953  
85,599000  	17,212311  	34,456434  	22,269839  	1256,670793  	70,620412  	63,194783  	0,004491  	0,006331  	0,003966  	0,004057  	0,004243  	-0,000001  	-0,000000  	23,291626  	20,053482  	21,056570  	22,647969  	28,112688  	26,600784  	28,075144  	29,113050  	34,996240  	33,634255  	37,176365  	57,445053  	24,536651  	23,788529  	25,308481  	62,051222  	0,052613  	0,026660  	-1923,038632  	25631,255230  	-0,018560  	-0,050016  	0,218716  	0,110825  	-3,445012  	5001,882174  	11495,039132  	1,667214  	-0,047965  
86,600000  	17,226780  	34,460317  	22,270146  	1256,670793  	70,618232  	63,200502  	0,004499  	0,006329  	0,003961  	0,004126  	0,004223  	0,000000  	-0,000000  	23,297313  	20,059796  	21,061853  	22,658459  	28,131074  	26,612588  	28,082793  	29,117853  	35,005239  	33,636786  	37,185282  	57,446398  	24,538142  	23,780932  	25,318937  	62,059292  	0,108588  	0,055023  	-3966,515345  	25621,510393  	-0,018553  	-0,049995  	0,203053  	0,102888  	-3,194895  	4997,286604  	11681,084819  	1,694198  	-0,047947  
87,600000  	17,250785  	34,455510  	22,270422  	1256,670793  	70,616861  	63,203237  	0,004494  	0,006325  	0,003963  	0,004094  	0,004260  	-0,000000  	-0,000000  	23,294598  	20,058918  	21,054345  	22,667697  	28,124185  	26,612378  	28,083613  	29,116366  	34,998093  	33,633300  	37,181424  	57,444915  	24,533721  	23,769545  	25,314427  	62,065985  	0,082844  	0,041978  	-3021,055521  	25626,417628  	-0,018557  	-0,050006  	0,231905  	0,117508  	-3,646856  	4989,757255  	11580,195918  	1,679565  	-0,047956  
88,696000  	17,272919  	34,443616  	22,271896  	1256,670793  	70,617858  	63,208024  	0,004480  	0,006327  	0,003964  	0,004101  	0,004222  	-0,000001  	-0,000000  	23,295251  	20,063131  	21,050615  	22,672034  	28,122760  	26,613029  	28,083822  	29,116045  	34,997555  	33,635250  	37,172844  	57,448182  	24,534934  	23,759601  	25,314901  	62,069460  	0,088580  	0,044884  	-3223,832818  	25628,636442  	-0,018558  	-0,050011  	0,201791  	0,102249  	-3,171672  	4994,545958  	11269,507812  	1,634504  	-0,047961  
89,602000  	17,272827  	34,436837  	22,270852  	956,927186  	70,619976  	63,203144  	0,004487  	0,006315  	0,003964  	0,004088  	0,004223  	0,000000  	-0,000000  	23,296328  	20,068798  	21,050484  	22,661863  	28,120864  	26,618083  	28,083211  	29,115667  	35,000935  	33,640255  	37,172173  	57,438325  	24,536996  	23,755485  	25,313199  	62,067024  	0,077753  	0,039398  	-2828,689484  	22584,267876  	-0,022200  	-0,049999  	0,203245  	0,102986  	-3,197538  	4967,510196  	11424,625910  	1,657002  	-0,047951  
90,602000  	17,258725  	34,447806  	22,269685  	357,439972  	70,618979  	63,199414  	0,004501  	0,006327  	0,003960  	0,004091  	0,004239  	-0,000001  	-0,000000  	23,292365  	20,069365  	21,051284  	22,652528  	28,118972  	26,619604  	28,084215  	29,116681  	34,999440  	33,644560  	37,169989  	57,440739  	24,534712  	23,753347  	25,315694  	62,061610  	0,080159  	0,040617  	-2920,484004  	12634,249935  	-0,036578  	-0,050007  	0,215896  	0,109396  	-3,397817  	4992,819082  	11711,927675  	1,698671  	-0,047958  
91,600000  	17,260380  	34,451689  	22,268856  	357,439972  	70,613777  	63,200657  	0,004497  	0,006327  	0,003965  	0,004089  	0,004247  	-0,000001  	-0,000000  	23,296962  	20,065894  	21,058665  	22,651448  	28,122562  	26,615297  	28,082757  	29,117207  	34,999698  	33,650821  	37,174999  	57,444831  	24,535434  	23,748740  	25,315272  	62,061684  	0,078934  	0,039997  	-2876,242757  	12636,004841  	-0,036583  	-0,050015  	0,221757  	0,112366  	-3,487037  	4992,883459  	11643,569230  	1,688757  	-0,047964  
92,601000  	17,281227  	34,448238  	22,270207  	956,927186  	70,610412  	63,205071  	0,004482  	0,006318  	0,003966  	0,004064  	0,004235  	0,000001  	-0,000000  	23,298924  	20,059076  	21,061969  	22,653638  	28,120214  	26,606861  	28,076540  	29,115083  	34,999011  	33,645631  	37,178473  	57,442645  	24,532858  	23,737073  	25,312808  	62,067146  	0,058501  	0,029643  	-2128,679335  	22580,957465  	-0,022197  	-0,049991  	0,212640  	0,107746  	-3,340163  	4974,569801  	11303,196288  	1,639390  	-0,047944  
93,604000  	17,289443  	34,442014  	22,269777  	-242,047242  	70,612624  	63,197642  	0,004489  	0,006345  	0,003959  	0,004100  	0,004259  	0,000000  	-0,000000  	23,291817  	20,056935  	21,063967  	22,658915  	28,122779  	26,606326  	28,076061  	29,113160  	34,998808  	33,637063  	37,184788  	57,452733  	24,534559  	23,725825  	25,315771  	62,068387  	0,087886  	0,044533  	-3195,204490  	-27015,054318  	-0,103709  	-0,049994  	0,231141  	0,117121  	-3,635494  	5033,379799  	11472,302412  	1,663917  	-0,047946  
94,600000  	17,296249  	34,440781  	22,270453  	-242,047242  	70,613683  	63,199570  	0,004494  	0,006310  	0,003968  	0,004092  	0,004234  	-0,000001  	-0,000000  	23,287516  	20,060332  	21,062396  	22,668071  	28,130675  	26,614180  	28,079360  	29,113291  	34,997933  	33,634870  	37,189111  	57,456094  	24,540152  	23,725714  	25,316306  	62,066054  	0,081069  	0,041078  	-2945,960915  	-27024,219162  	-0,103743  	-0,050013  	0,211554  	0,107196  	-3,327030  	4957,746732  	11580,654889  	1,679632  	-0,047963  
95,602000  	17,293030  	34,443277  	22,270545  	-242,047242  	70,613745  	63,207371  	0,004497  	0,006325  	0,003963  	0,004094  	0,004255  	0,000000  	-0,000000  	23,291467  	20,060819  	21,049829  	22,671360  	28,125502  	26,618147  	28,081665  	29,117498  	34,993205  	33,628626  	37,173282  	57,442681  	24,535986  	23,728833  	25,315990  	62,067092  	0,082446  	0,041776  	-2996,999796  	-27016,188349  	-0,103713  	-0,049996  	0,228278  	0,115670  	-3,586307  	4988,745607  	11628,338452  	1,686548  	-0,047948  
96,603000  	17,283956  	34,444941  	22,271650  	-242,047242  	70,615241  	63,204387  	0,004489  	0,006330  	0,003962  	0,004068  	0,004258  	0,000001  	-0,000000  	23,298159  	20,060562  	21,053020  	22,660123  	28,119032  	26,620912  	28,087591  	29,120739  	34,996574  	33,630096  	37,166639  	57,440233  	24,538125  	23,726761  	25,315470  	62,065223  	0,061395  	0,031109  	-2233,189410  	-27014,458674  	-0,103705  	-0,049993  	0,230751  	0,116923  	-3,627352  	4999,419554  	11465,580251  	1,662942  	-0,047945  
97,599000  	17,278591  	34,445865  	22,270514  	57,696365  	70,618761  	63,201279  	0,004482  	0,006332  	0,003962  	0,004107  	0,004213  	-0,000001  	-0,000000  	23,291135  	20,059698  	21,062685  	22,652883  	28,117366  	26,620248  	28,086412  	29,120095  	35,003035  	33,639640  	37,164869  	57,447990  	24,540533  	23,725107  	25,316106  	62,064720  	0,093594  	0,047425  	-3405,639771  	1927,267056  	-0,054092  	-0,050015  	0,194925  	0,098770  	-3,066917  	5004,257071  	11318,186989  	1,641564  	-0,047965  
98,600000  	17,266512  	34,450919  	22,270453  	657,183579  	70,621503  	63,205631  	0,004493  	0,006323  	0,003967  	0,004073  	0,004254  	-0,000001  	-0,000000  	23,300545  	20,058904  	21,059315  	22,654954  	28,121248  	26,613433  	28,084630  	29,125848  	35,008538  	33,645973  	37,170666  	57,452030  	24,543077  	23,720004  	25,324348  	62,070852  	0,065738  	0,033310  	-2394,440450  	18574,002837  	-0,027636  	-0,050013  	0,227237  	0,115143  	-3,574529  	4985,673876  	11544,558580  	1,674397  	-0,047963  
99,601000  	17,255383  	34,456927  	22,270084  	-242,047242  	70,625335  	63,216448  	0,004498  	0,006337  	0,003962  	0,004088  	0,004220  	0,000000  	-0,000000  	23,297670  	20,056892  	21,057322  	22,657827  	28,119470  	26,603207  	28,082247  	29,122362  	35,000785  	33,633607  	37,171894  	57,448431  	24,534360  	23,710172  	25,321217  	62,059482  	0,077673  	0,039357  	-2831,964484  	-27015,796793  	-0,103711  	-0,049996  	0,200701  	0,101697  	-3,154132  	5014,986199  	11660,169861  	1,691165  	-0,047948  
100,600000  	17,248884  	34,463028  	22,270637  	956,927186  	70,629634  	63,223348  	0,004497  	0,006329  	0,003963  	0,004087  	0,004235  	0,000000  	-0,000000  	23,293013  	20,050258  	21,056362  	22,666965  	28,122344  	26,610835  	28,076580  	29,118249  	35,000569  	33,633281  	37,171749  	57,446203  	24,528491  	23,712982  	25,322030  	62,059376  	0,077002  	0,039018  	-2809,564071  	22583,367831  	-0,022199  	-0,049997  	0,212404  	0,107627  	-3,336887  	4997,959385  	11629,093989  	1,686657  	-0,047949  
101,601000  	17,247750  	34,461118  	22,270268  	956,927186  	70,632625  	63,204294  	0,004479  	0,006314  	0,003964  	0,004081  	0,004246  	-0,000001  	-0,000000  	23,286376  	20,056196  	21,058097  	22,673413  	28,119293  	26,617788  	28,085290  	29,115504  	34,996139  	33,625387  	37,170506  	57,446219  	24,522193  	23,719870  	25,321188  	62,063187  	0,071996  	0,036481  	-2626,786769  	22590,626973  	-0,022206  	-0,050015  	0,221321  	0,112145  	-3,487321  	4965,820107  	11254,813677  	1,632373  	-0,047964  
102,605000  	17,238369  	34,458653  	22,269654  	357,439972  	70,632064  	63,213122  	0,004489  	0,006324  	0,003967  	0,004100  	0,004265  	-0,000001  	-0,000000  	23,288791  	20,061972  	21,045057  	22,675073  	28,140852  	26,622185  	28,096783  	29,119617  	35,006390  	33,630288  	37,164538  	57,445857  	24,541814  	23,738175  	25,308402  	62,071796  	0,087454  	0,044314  	-3192,067021  	12634,769522  	-0,036579  	-0,050010  	0,235818  	0,119491  	-3,711050  	4986,448529  	11467,084264  	1,663160  	-0,047960  
103,601000  	17,230275  	34,461796  	22,270391  	357,439972  	70,627765  	63,211536  	0,004499  	0,006338  	0,003962  	0,004117  	0,004222  	0,000000  	-0,000000  	23,291572  	20,059377  	21,055548  	22,668556  	28,119768  	26,613507  	28,085817  	29,116631  	34,991255  	33,634443  	37,168330  	57,440776  	24,531317  	23,745312  	25,298862  	62,072269  	0,101489  	0,051425  	-3706,751879  	12631,264385  	-0,036569  	-0,049994  	0,201854  	0,102281  	-3,175399  	5017,013740  	11677,900266  	1,693736  	-0,047947  
104,605000  	17,219791  	34,465000  	22,270760  	956,927186  	70,623216  	63,208304  	0,004498  	0,006311  	0,003962  	0,004076  	0,004248  	-0,000001  	-0,000000  	23,290624  	20,072437  	21,069949  	22,657862  	28,129440  	26,627596  	28,095471  	29,123868  	35,004155  	33,646042  	37,153266  	57,437580  	24,543985  	23,763310  	25,313957  	62,068434  	0,068042  	0,034477  	-2487,110755  	22589,461079  	-0,022205  	-0,050012  	0,222330  	0,112656  	-3,496888  	4959,473608  	11662,274066  	1,691470  	-0,047962  
105,600000  	17,199465  	34,460162  	22,269562  	1256,670793  	70,619789  	63,196865  	0,004482  	0,006335  	0,003965  	0,004084  	0,004264  	-0,000000  	-0,000000  	23,306189  	20,068818  	21,074593  	22,659958  	28,129455  	26,622386  	28,098778  	29,127789  	35,010111  	33,654751  	37,165816  	57,457812  	24,545377  	23,756159  	25,318576  	62,065750  	0,074848  	0,037926  	-2738,375979  	25623,891760  	-0,018555  	-0,050000  	0,235728  	0,119445  	-3,711616  	5010,417512  	11304,283697  	1,639548  	-0,047952  
106,600000  	17,182543  	34,459053  	22,269255  	657,183579  	70,617609  	63,204947  	0,004488  	0,006327  	0,003966  	0,004082  	0,004233  	-0,000001  	-0,000000  	23,308016  	20,065758  	21,068314  	22,656128  	28,130282  	26,616691  	28,076752  	29,112733  	35,014003  	33,653376  	37,161856  	57,448086  	24,543586  	23,749489  	25,305053  	62,068099  	0,073384  	0,037184  	-2687,282968  	18574,328654  	-0,027636  	-0,050014  	0,210528  	0,106676  	-3,310252  	4994,634388  	11436,064881  	1,658661  	-0,047964  
107,601000  	17,171047  	34,467835  	22,269347  	657,183579  	70,620568  	63,200968  	0,004497  	0,006331  	0,003965  	0,004083  	0,004241  	0,000002  	-0,000000  	23,307542  	20,064439  	21,073134  	22,665083  	28,122458  	26,618024  	28,080999  	29,118629  	35,003625  	33,642134  	37,180612  	57,452681  	24,545249  	23,734168  	25,319380  	62,067617  	0,073915  	0,037453  	-2709,901441  	18563,293644  	-0,027620  	-0,049981  	0,216849  	0,109879  	-3,412836  	5001,834068  	11625,584626  	1,686148  	-0,047935  
108,602000  	17,167552  	34,474183  	22,269470  	1256,670793  	70,626550  	63,207620  	0,004495  	0,006339  	0,003961  	0,004100  	0,004224  	-0,000000  	-0,000000  	23,297435  	20,053432  	21,057617  	22,673331  	28,123121  	26,614820  	28,077505  	29,109623  	34,996607  	33,630018  	37,167843  	57,446030  	24,548887  	23,724766  	25,311984  	62,067008  	0,087326  	0,044249  	-3203,398049  	25625,440922  	-0,018556  	-0,050004  	0,203878  	0,103306  	-3,208402  	5019,281812  	11601,859352  	1,682707  	-0,047955  
109,602000  	17,171507  	34,471810  	22,269501  	956,927186  	70,627515  	63,213557  	0,004489  	0,006317  	0,003964  	0,004085  	0,004242  	-0,000000  	-0,000000  	23,298793  	20,065970  	21,062862  	22,679623  	28,125076  	26,622696  	28,086640  	29,118773  	34,999070  	33,639101  	37,168506  	57,445390  	24,559388  	23,733501  	25,323916  	62,074227  	0,075204  	0,038106  	-2757,702350  	22586,748858  	-0,022203  	-0,050005  	0,217833  	0,110378  	-3,425725  	4972,767936  	11472,168251  	1,663897  	-0,047956  
110,603000  	17,178497  	34,463367  	22,266861  	-242,047242  	70,626332  	63,213370  	0,004485  	0,006315  	0,003965  	0,004091  	0,004237  	-0,000000  	-0,000000  	23,289725  	20,065698  	21,062596  	22,663972  	28,120801  	26,623015  	28,090896  	29,118545  	34,996943  	33,640193  	37,156142  	57,438707  	24,557325  	23,729368  	25,306580  	62,063323  	0,080398  	0,040738  	-2945,523333  	-27020,659305  	-0,103731  	-0,050006  	0,214081  	0,108477  	-3,366264  	4968,849391  	11366,068263  	1,648509  	-0,047956  
111,601000  	17,193120  	34,463552  	22,267045  	-242,047242  	70,626051  	63,205289  	0,004491  	0,006344  	0,003963  	0,004099  	0,004236  	0,000001  	-0,000000  	23,308299  	20,069442  	21,062895  	22,660351  	28,122459  	26,626277  	28,093151  	29,129356  	35,013635  	33,652495  	37,164328  	57,444329  	24,564713  	23,730813  	25,311925  	62,065157  	0,087115  	0,044142  	-3188,948227  	-27013,178500  	-0,103702  	-0,049990  	0,213232  	0,108046  	-3,356433  	5031,398242  	11500,702129  	1,668036  	-0,047943  
112,602000  	17,200171  	34,474213  	22,266861  	956,927186  	70,626924  	63,209081  	0,004498  	0,006315  	0,003964  	0,004114  	0,004227  	0,000000  	-0,000000  	23,302320  	20,059221  	21,071041  	22,656114  	28,117968  	26,616171  	28,088247  	29,124097  	35,012134  	33,644019  	37,158332  	57,442681  	24,552333  	23,728842  	25,318757  	62,064051  	0,098651  	0,049987  	-3612,020416  	22583,437591  	-0,022199  	-0,049997  	0,206233  	0,104500  	-3,244990  	4967,503829  	11648,575545  	1,689483  	-0,047949  
113,604000  	17,209613  	34,472303  	22,267229  	57,696365  	70,630724  	63,206687  	0,004495  	0,006329  	0,003963  	0,004094  	0,004233  	-0,000001  	-0,000000  	23,297607  	20,056458  	21,071032  	22,660589  	28,122817  	26,605566  	28,089451  	29,121809  	35,014291  	33,639398  	37,169203  	57,444988  	24,540710  	23,726485  	25,313119  	62,062739  	0,082559  	0,041833  	-3020,825372  	1927,416884  	-0,054091  	-0,050014  	0,211180  	0,107007  	-3,325607  	4998,673198  	11584,771506  	1,680229  	-0,047964  
114,600000  	17,210165  	34,458683  	22,266369  	1256,670793  	70,632033  	63,216758  	0,004481  	0,006333  	0,003963  	0,004070  	0,004220  	-0,000001  	-0,000000  	23,299509  	20,063555  	21,066457  	22,666006  	28,126219  	26,611369  	28,086782  	29,115136  	35,020816  	33,637438  	37,174029  	57,450103  	24,535772  	23,714671  	25,319843  	62,061026  	0,063319  	0,032084  	-2314,929743  	25627,769015  	-0,018558  	-0,050008  	0,200840  	0,101767  	-3,159038  	5005,863681  	11281,384571  	1,636226  	-0,047959  
115,605000  	17,210257  	34,446851  	22,266277  	357,439972  	70,633341  	63,205413  	0,004489  	0,006319  	0,003965  	0,004102  	0,004252  	-0,000001  	-0,000000  	23,306963  	20,072976  	21,062565  	22,668195  	28,129280  	26,626152  	28,089705  	29,112817  	35,016015  	33,644464  	37,169792  	57,457281  	24,545247  	23,705642  	25,328039  	62,064772  	0,089404  	0,045302  	-3266,344631  	12634,687606  	-0,036579  	-0,050009  	0,225605  	0,114316  	-3,554629  	4977,006953  	11464,803531  	1,662829  	-0,047959  
116,601000  	17,220189  	34,444571  	22,265233  	956,927186  	70,633653  	63,202367  	0,004500  	0,006327  	0,003962  	0,004105  	0,004226  	0,000001  	-0,000000  	23,309933  	20,072860  	21,063157  	22,673057  	28,135976  	26,635930  	28,099267  	29,118808  	35,011426  	33,653577  	37,166191  	57,457670  	24,556002  	23,704989  	25,329212  	62,070739  	0,091405  	0,046316  	-3337,083916  	22578,405306  	-0,022194  	-0,049984  	0,205247  	0,104000  	-3,235321  	4993,871054  	11697,339456  	1,696556  	-0,047938  
117,601000  	17,224420  	34,442537  	22,265325  	57,696365  	70,635647  	63,207744  	0,004498  	0,006325  	0,003961  	0,004061  	0,004259  	0,000001  	-0,000000  	23,309357  	20,073394  	21,065508  	22,666899  	28,134697  	26,632675  	28,098243  	29,123485  	35,008537  	33,653046  	37,162067  	57,447296  	24,555050  	23,692618  	25,323935  	62,071186  	0,055824  	0,028287  	-2037,331724  	1926,814092  	-0,054071  	-0,049994  	0,231750  	0,117430  	-3,651439  	4988,954303  	11646,958555  	1,689249  	-0,047946  
118,600000  	17,215959  	34,435512  	22,264343  	1256,670793  	70,636893  	63,208552  	0,004479  	0,006325  	0,003965  	0,004127  	0,004222  	-0,000001  	-0,000000  	23,306686  	20,074274  	21,064859  	22,660481  	28,126876  	26,625922  	28,094148  	29,125267  	35,013489  	33,651416  	37,160789  	57,440427  	24,551099  	23,678245  	25,316776  	62,067454  	0,109450  	0,055459  	-3994,767527  	25629,396064  	-0,018559  	-0,050012  	0,202226  	0,102470  	-3,186449  	4989,053346  	11245,118796  	1,630967  	-0,047962  
119,600000  	17,214303  	34,432277  	22,263330  	1256,670793  	70,636301  	63,201279  	0,004491  	0,006330  	0,003964  	0,004070  	0,004224  	-0,000000  	-0,000000  	23,307801  	20,067432  	21,068478  	22,663503  	28,119736  	26,620014  	28,091625  	29,129447  	35,019081  	33,655569  	37,166006  	57,448175  	24,546114  	23,680295  	25,315586  	62,067471  	0,063471  	0,032161  	-2316,385039  	25625,349626  	-0,018556  	-0,050003  	0,203624  	0,103178  	-3,211360  	5000,438277  	11500,800985  	1,668050  	-0,047954  
120,599000  	17,217614  	34,435543  	22,264128  	1256,670793  	70,637672  	63,214023  	0,004498  	0,006333  	0,003965  	0,004072  	0,004249  	-0,000001  	-0,000000  	23,309909  	20,061243  	21,070996  	22,664594  	28,121557  	26,612645  	28,086382  	29,127388  	35,016705  	33,654306  	37,171454  	57,452986  	24,536268  	23,688620  	25,321095  	62,070981  	0,065186  	0,033030  	-2378,974999  	25630,896689  	-0,018560  	-0,050015  	0,223433  	0,113215  	-3,518382  	5006,107042  	11664,865488  	1,691846  	-0,047964  
121,603000  	17,219392  	34,442599  	22,263852  	956,927186  	70,639790  	63,218188  	0,004497  	0,006320  	0,003964  	0,004101  	0,004217  	0,000001  	-0,000000  	23,303836  	20,055793  	21,067303  	22,664540  	28,129258  	26,612201  	28,088147  	29,117822  	35,016459  	33,643573  	37,174012  	57,450761  	24,522879  	23,699496  	25,327887  	62,070698  	0,088116  	0,044649  	-3216,784493  	22579,410516  	-0,022195  	-0,049987  	0,197739  	0,100196  	-3,112929  	4979,724961  	11637,044780  	1,687811  	-0,047940  
122,601000  	17,222826  	34,438532  	22,261518  	357,439972  	70,644089  	63,206563  	0,004486  	0,006329  	0,003961  	0,004097  	0,004233  	0,000001  	-0,000000  	23,301261  	20,050912  	21,069622  	22,664858  	28,124203  	26,620025  	28,090367  	29,118213  	35,009243  	33,636567  	37,170325  	57,455829  	24,512134  	23,719188  	25,329620  	62,071737  	0,084911  	0,043025  	-3098,406850  	12630,753573  	-0,036567  	-0,049990  	0,210573  	0,106699  	-3,322073  	4998,425592  	11391,827131  	1,652245  	-0,047943  
123,602000  	17,224021  	34,431599  	22,261242  	357,439972  	70,648139  	63,206719  	0,004485  	0,006311  	0,003963  	0,004099  	0,004227  	-0,000001  	-0,000000  	23,296512  	20,057965  	21,064407  	22,666576  	28,119785  	26,628805  	28,085832  	29,120251  	35,002615  	33,639851  	37,154486  	57,449174  	24,516616  	23,740124  	25,323113  	62,075008  	0,087102  	0,044135  	-3176,857527  	12635,071064  	-0,036579  	-0,050009  	0,206060  	0,104412  	-3,252569  	4959,426916  	11386,679594  	1,651498  	-0,047959  
124,683000  	17,216725  	34,433756  	22,262163  	956,927186  	70,645086  	63,213557  	0,004492  	0,006331  	0,003967  	0,004077  	0,004258  	-0,000001  	-0,000000  	23,292808  	20,064314  	21,060019  	22,657256  	28,117688  	26,627323  	28,084738  	29,119369  	35,005138  	33,646000  	37,149805  	57,447689  	24,520463  	23,755668  	25,317218  	62,065291  	0,069295  	0,035112  	-2528,771057  	22589,351394  	-0,022205  	-0,050011  	0,230308  	0,116699  	-3,630482  	5001,435068  	11529,582001  	1,672224  	-0,047961  
125,599000  	17,213322  	34,443246  	22,262040  	-242,047242  	70,638637  	63,216758  	0,004499  	0,006334  	0,003965  	0,004101  	0,004232  	-0,000001  	-0,000000  	23,297182  	20,065948  	21,058899  	22,648955  	28,119658  	26,615157  	28,086729  	29,123745  	35,006592  	33,643860  	37,157444  	57,448394  	24,530399  	23,773083  	25,328235  	62,064380  	0,088671  	0,044930  	-3238,309865  	-27025,517816  	-0,103752  	-0,050016  	0,209650  	0,106231  	-3,300546  	5009,831746  	11675,923160  	1,693449  	-0,047965  
126,600000  	17,223684  	34,442691  	22,261611  	357,439972  	70,636145  	63,219991  	0,004495  	0,006322  	0,003966  	0,004091  	0,004257  	-0,000001  	-0,000000  	23,299134  	20,071501  	21,058404  	22,656042  	28,116921  	26,610581  	28,089261  	29,128400  	35,011770  	33,652339  	37,163000  	57,454839  	24,526827  	23,788610  	25,332192  	62,066614  	0,080610  	0,040846  	-2942,033737  	12634,567793  	-0,036578  	-0,050007  	0,229898  	0,116491  	-3,616530  	4982,280256  	11581,226837  	1,679715  	-0,047957  
127,600000  	17,234169  	34,439179  	22,261426  	357,439972  	70,634525  	63,217256  	0,004480  	0,006317  	0,003963  	0,004079  	0,004204  	0,000002  	-0,000000  	23,300294  	20,063824  	21,069842  	22,661750  	28,123980  	26,609997  	28,094970  	29,116262  	35,015602  	33,651015  	37,164849  	57,457013  	24,530139  	23,795886  	25,324074  	62,079736  	0,070393  	0,035668  	-2567,044134  	12628,419524  	-0,036560  	-0,049980  	0,187920  	0,095221  	-2,956625  	4973,282956  	11275,820429  	1,635419  	-0,047934  
128,603000  	17,238031  	34,441582  	22,262716  	956,927186  	70,638637  	63,222975  	0,004489  	0,006329  	0,003963  	0,004074  	0,004253  	0,000000  	-0,000000  	23,291353  	20,050780  	21,071920  	22,659757  	28,119366  	26,612248  	28,082076  	29,109741  	35,005845  	33,644906  	37,163708  	57,449075  	24,531310  	23,809010  	25,334320  	62,065678  	0,066583  	0,033738  	-2427,902547  	22582,594761  	-0,022198  	-0,049994  	0,226650  	0,114845  	-3,565205  	4999,215102  	11459,592444  	1,662073  	-0,047947  
129,600000  	17,257591  	34,450888  	22,263299  	1256,670793  	70,642189  	63,223659  	0,004498  	0,006330  	0,003960  	0,004080  	0,004228  	0,000001  	-0,000000  	23,289257  	20,041515  	21,049807  	22,663183  	28,122996  	26,607938  	28,073467  	29,098681  	34,991456  	33,622298  	37,160208  	57,449626  	24,532190  	23,808828  	25,324555  	62,072911  	0,071090  	0,036022  	-2590,705745  	25620,130384  	-0,018552  	-0,049992  	0,206757  	0,104765  	-3,253549  	4999,279480  	11666,849655  	1,692133  	-0,047944  
130,600000  	17,265561  	34,451504  	22,262194  	657,183579  	70,641691  	63,228632  	0,004496  	0,006312  	0,003960  	0,004137  	0,004274  	-0,000000  	-0,000000  	23,295948  	20,045112  	21,044634  	22,652693  	28,117857  	26,612177  	28,075933  	29,101267  	34,983279  	33,629486  	37,144717  	57,446011  	24,541104  	23,802453  	25,317304  	62,071241  	0,117262  	0,059417  	-4271,488631  	18570,055584  	-0,027630  	-0,050000  	0,243652  	0,123460  	-3,831307  	4960,664240  	11619,377925  	1,685248  	-0,047952  
131,602000  	17,264182  	34,442260  	22,261457  	-242,047242  	70,637952  	63,218685  	0,004482  	0,006329  	0,003963  	0,004102  	0,004220  	0,000000  	-0,000000  	23,288261  	20,065897  	21,052951  	22,668394  	28,127041  	26,622246  	28,095188  	29,111590  	35,011825  	33,650976  	37,154830  	57,458896  	24,551336  	23,833935  	25,324531  	62,082531  	0,089175  	0,045185  	-3246,880308  	-27017,255188  	-0,103720  	-0,049999  	0,200500  	0,101595  	-3,155392  	4998,862087  	11307,143439  	1,639963  	-0,047951  
132,599000  	17,269516  	34,437083  	22,261703  	956,927186  	70,638451  	63,224156  	0,004489  	0,006320  	0,003966  	0,004060  	0,004287  	-0,000001  	-0,000000  	23,300102  	20,058646  	21,054361  	22,657598  	28,124688  	26,614153  	28,100575  	29,126886  	35,007733  	33,659836  	37,154158  	57,451331  	24,560182  	23,850766  	25,330935  	62,075842  	0,055253  	0,027997  	-2010,556096  	22589,849657  	-0,022205  	-0,050012  	0,253181  	0,128288  	-3,981792  	4978,369494  	11458,017820  	1,661845  	-0,047962  
133,722000  	17,282760  	34,445002  	22,261058  	1256,670793  	70,642968  	63,217504  	0,004500  	0,006314  	0,003965  	0,004096  	0,004214  	-0,000001  	-0,000000  	23,296788  	20,059641  	21,057999  	22,646474  	28,116509  	26,601968  	28,086429  	29,127905  	35,004158  	33,644590  	37,154853  	57,445940  	24,553215  	23,846251  	25,314538  	62,063276  	0,084601  	0,042868  	-3077,497391  	25630,356620  	-0,018559  	-0,050014  	0,195854  	0,099240  	-3,084845  	4965,592309  	11700,594620  	1,697028  	-0,047963  
134,604000  	17,287543  	34,453014  	22,259891  	1256,670793  	70,643778  	63,210666  	0,004499  	0,006331  	0,003965  	0,004069  	0,004220  	-0,000001  	-0,000000  	23,294182  	20,045444  	21,050169  	22,647384  	28,117635  	26,604750  	28,083117  	29,117027  	35,000451  	33,635789  	37,151331  	57,445328  	24,557681  	23,839730  	25,321233  	62,068944  	0,062865  	0,031854  	-2287,236674  	25627,632418  	-0,018557  	-0,050008  	0,200402  	0,101545  	-3,159742  	5003,222785  	11668,424279  	1,692362  	-0,047958  
135,602000  	17,275310  	34,449686  	22,260996  	1256,670793  	70,640694  	63,204760  	0,004485  	0,006325  	0,003966  	0,004035  	0,004235  	0,000000  	-0,000000  	23,300700  	20,051313  	21,057426  	22,661232  	28,119243  	26,602791  	28,075724  	29,114001  	35,003639  	33,634396  	37,159891  	57,452522  	24,562494  	23,832548  	25,323552  	62,073299  	0,035320  	0,017897  	-1285,732415  	25623,689748  	-0,018554  	-0,049999  	0,212253  	0,107550  	-3,347861  	4988,669203  	11366,131813  	1,648518  	-0,047951  
136,600000  	17,255629  	34,445619  	22,260689  	57,696365  	70,640694  	63,212034  	0,004489  	0,006315  	0,003965  	0,004099  	0,004204  	-0,000000  	-0,000000  	23,294748  	20,047198  	21,049435  	22,657579  	28,119546  	26,614988  	28,084996  	29,113017  	35,003830  	33,635649  	37,164738  	57,450503  	24,569761  	23,830806  	25,326940  	62,074334  	0,087204  	0,044187  	-3177,346731  	1927,303919  	-0,054078  	-0,050000  	0,187743  	0,095131  	-2,958373  	4967,655222  	11471,264431  	1,663766  	-0,047952  
137,599000  	17,253145  	34,448762  	22,261457  	-242,047242  	70,641410  	63,225462  	0,004498  	0,006326  	0,003964  	0,004060  	0,004215  	0,000002  	-0,000000  	23,282158  	20,039919  	21,048070  	22,650197  	28,117260  	26,614062  	28,078846  	29,100946  	34,993434  	33,634739  	37,146361  	57,446489  	24,572866  	23,821980  	25,318874  	62,066668  	0,055043  	0,027891  	-2006,175137  	-27007,855349  	-0,103684  	-0,049980  	0,196747  	0,099693  	-3,094943  	4991,442391  	11651,505899  	1,689908  	-0,047934  
138,599000  	17,254372  	34,454000  	22,260290  	357,439972  	70,640849  	63,230497  	0,004498  	0,006326  	0,003961  	0,004081  	0,004259  	0,000001  	-0,000000  	23,285615  	20,055117  	21,057199  	22,658481  	28,116009  	26,622427  	28,096473  	29,113868  	34,998717  	33,641237  	37,149846  	57,452295  	24,574675  	23,825231  	25,325385  	62,071978  	0,072489  	0,036731  	-2642,664726  	12630,474822  	-0,036566  	-0,049989  	0,231471  	0,117288  	-3,638436  	4991,735274  	11655,679005  	1,690513  	-0,047942  
139,600000  	17,243887  	34,449748  	22,260106  	1256,670793  	70,637049  	63,219058  	0,004488  	0,006334  	0,003961  	0,004057  	0,004232  	0,000001  	-0,000000  	23,293859  	20,068129  	21,057353  	22,653965  	28,114588  	26,616551  	28,091820  	29,121327  	35,008127  	33,643640  	37,151615  	57,449212  	24,581551  	23,822931  	25,322655  	62,072938  	0,052887  	0,026798  	-1928,764673  	25616,869668  	-0,018550  	-0,049984  	0,209613  	0,106213  	-3,298245  	5008,443030  	11432,244830  	1,658107  	-0,047938  
140,599000  	17,227332  	34,450179  	22,260290  	57,696365  	70,635117  	63,220115  	0,004483  	0,006318  	0,003962  	0,004103  	0,004260  	0,000001  	-0,000000  	23,288216  	20,059282  	21,054000  	22,645366  	28,116482  	26,607609  	28,078253  	29,113808  	35,008766  	33,642888  	37,148128  	57,445848  	24,575734  	23,809721  	25,319572  	62,064270  	0,090176  	0,045693  	-3291,898715  	1926,685471  	-0,054060  	-0,049982  	0,231905  	0,117508  	-3,647541  	4974,671673  	11335,479607  	1,644072  	-0,047936  
141,601000  	17,218656  	34,461457  	22,260382  	1256,670793  	70,634743  	63,219463  	0,004490  	0,006316  	0,003960  	0,004106  	0,004222  	0,000001  	-0,000000  	23,282160  	20,047038  	21,052774  	22,650743  	28,117665  	26,609117  	28,078765  	29,113390  	35,010736  	33,640276  	37,156685  	57,450882  	24,574396  	23,805195  	25,320642  	62,066683  	0,092129  	0,046683  	-3367,112348  	25619,594666  	-0,018552  	-0,049990  	0,201956  	0,102332  	-3,176594  	4969,873066  	11474,872650  	1,664290  	-0,047943  
142,600000  	17,226259  	34,475199  	22,260260  	657,183579  	70,636675  	63,221576  	0,004498  	0,006328  	0,003961  	0,004086  	0,004264  	-0,000001  	-0,000000  	23,285666  	20,050888  	21,054353  	22,655186  	28,114726  	26,605758  	28,079441  	29,110215  	35,008565  	33,633674  	37,156617  	57,456532  	24,578130  	23,796389  	25,319614  	62,067567  	0,076070  	0,038545  	-2781,155705  	18575,740843  	-0,027638  	-0,050017  	0,235077  	0,119115  	-3,697475  	4996,139834  	11654,754002  	1,690379  	-0,047966  
143,598000  	17,235180  	34,479636  	22,260260  	657,183579  	70,637204  	63,222633  	0,004495  	0,006321  	0,003965  	0,004091  	0,004234  	-0,000001  	-0,000000  	23,288902  	20,059109  	21,060094  	22,661049  	28,121673  	26,610836  	28,081384  	29,110308  	35,003329  	33,632229  	37,158609  	57,457372  	24,583663  	23,789725  	25,326905  	62,075277  	0,080764  	0,040924  	-2952,030206  	18575,793878  	-0,027638  	-0,050017  	0,211965  	0,107404  	-3,333719  	4980,983508  	11602,233590  	1,682762  	-0,047966  
144,600000  	17,234261  	34,469098  	22,259277  	1256,670793  	70,636519  	63,237802  	0,004480  	0,006328  	0,003963  	0,004104  	0,004234  	-0,000001  	-0,000000  	23,289003  	20,062435  	21,056971  	22,664587  	28,128616  	26,622102  	28,088660  	29,115149  	35,003208  	33,635841  	37,157837  	57,459199  	24,591188  	23,792379  	25,332101  	62,080331  	0,090823  	0,046021  	-3317,830685  	25630,123651  	-0,018559  	-0,050013  	0,211744  	0,107292  	-3,323120  	4995,267553  	11264,812185  	1,633823  	-0,047963  
145,599000  	17,223316  	34,458961  	22,257312  	57,696365  	70,639728  	63,218344  	0,004488  	0,006326  	0,003965  	0,004099  	0,004267  	-0,000001  	-0,000000  	23,289729  	20,061374  	21,049852  	22,661000  	28,119849  	26,619490  	28,092363  	29,116933  	35,003556  	33,635631  	37,148010  	57,454037  	24,593326  	23,785383  	25,320420  	62,072397  	0,087112  	0,044140  	-3182,418019  	1927,983622  	-0,054092  	-0,050014  	0,238074  	0,120634  	-3,747792  	4990,779514  	11439,341228  	1,659136  	-0,047964  
146,599000  	17,224849  	34,464199  	22,257742  	1256,670793  	70,643529  	63,217846  	0,004499  	0,006326  	0,003967  	0,004077  	0,004253  	-0,000001  	-0,000000  	23,292203  	20,064059  	21,056552  	22,658261  	28,117142  	26,619452  	28,091294  	29,124999  	35,008434  	33,640716  	37,147270  	57,447987  	24,588775  	23,774419  	25,315873  	62,071868  	0,068681  	0,034801  	-2509,612076  	25631,646559  	-0,018560  	-0,050016  	0,226534  	0,114786  	-3,568183  	4990,848844  	11670,097758  	1,692605  	-0,047965  
147,600000  	17,228620  	34,468081  	22,257650  	1256,670793  	70,645647  	63,230559  	0,004499  	0,006319  	0,003966  	0,004075  	0,004244  	-0,000001  	-0,000000  	23,296376  	20,070551  	21,067075  	22,658533  	28,128590  	26,626873  	28,091887  	29,133762  	35,016764  	33,653039  	37,156261  	57,456226  	24,579985  	23,777676  	25,328118  	62,077938  	0,067037  	0,033968  	-2449,563881  	25628,104943  	-0,018558  	-0,050009  	0,219689  	0,111318  	-3,455433  	4977,373410  	11672,223147  	1,692913  	-0,047959  
148,599000  	17,228252  	34,466911  	22,256668  	1256,670793  	70,644089  	63,214893  	0,004481  	0,006325  	0,003968  	0,004085  	0,004244  	-0,000001  	-0,000000  	23,300235  	20,060410  	21,067228  	22,663716  	28,131318  	26,617749  	28,090210  	29,129061  	35,011139  	33,652092  	37,167413  	57,458011  	24,569856  	23,780323  	25,334893  	62,082159  	0,075866  	0,038442  	-2772,061409  	25631,178600  	-0,018560  	-0,050015  	0,219740  	0,111344  	-3,462815  	4988,860213  	11287,640700  	1,637134  	-0,047964  
149,600000  	17,213935  	34,462628  	22,258571  	57,696365  	70,641784  	63,212718  	0,004490  	0,006312  	0,003968  	0,004080  	0,004245  	-0,000001  	-0,000000  	23,302218  	20,049842  	21,060304  	22,667341  	28,126968  	26,609150  	28,081163  	29,120718  	35,006763  	33,640800  	37,164695  	57,453831  	24,566681  	23,778420  	25,332818  	62,079692  	0,071633  	0,036297  	-2618,927665  	1927,635089  	-0,054084  	-0,050006  	0,219976  	0,111464  	-3,466475  	4960,776724  	11488,627660  	1,666285  	-0,047957  
150,599000  	17,208233  	34,459916  	22,259369  	657,183579  	70,635989  	63,222975  	0,004500  	0,006320  	0,003965  	0,004113  	0,004235  	-0,000000  	-0,000000  	23,296003  	20,057621  	21,058449  	22,674143  	28,118447  	26,615336  	28,083586  	29,115017  	35,007071  	33,635234  	37,158743  	57,453737  	24,565366  	23,796057  	25,319273  	62,063127  	0,097841  	0,049577  	-3577,692060  	18571,984805  	-0,027632  	-0,050006  	0,212057  	0,107451  	-3,334457  	4979,587716  	11688,866144  	1,695327  	-0,047956  
151,600000  	17,215591  	34,462135  	22,260106  	657,183579  	70,629291  	63,221328  	0,004497  	0,006327  	0,003966  	0,004081  	0,004247  	0,000000  	-0,000000  	23,292418  	20,058668  	21,057467  	22,672164  	28,117866  	26,612803  	28,085298  	29,114419  	34,995901  	33,642993  	37,147125  	57,449731  	24,563200  	23,820638  	25,330391  	62,063561  	0,072520  	0,036746  	-2651,010027  	18569,293429  	-0,027628  	-0,049998  	0,221649  	0,112311  	-3,482914  	4993,550581  	11637,129513  	1,687823  	-0,047950  
152,602000  	17,222764  	34,459053  	22,258448  	1256,670793  	70,628107  	63,234445  	0,004487  	0,006310  	0,003969  	0,004061  	0,004250  	-0,000001  	-0,000000  	23,295872  	20,064876  	21,055575  	22,670497  	28,125628  	26,619416  	28,095765  	29,122688  	34,999518  	33,651776  	37,157116  	57,450085  	24,571981  	23,825693  	25,330901  	62,075863  	0,056355  	0,028556  	-2058,875238  	25631,128224  	-0,018560  	-0,050015  	0,224113  	0,113560  	-3,514836  	4958,049519  	11417,148212  	1,655917  	-0,047964  
153,599000  	17,211422  	34,450148  	22,257005  	956,927186  	70,629011  	63,240133  	0,004487  	0,006334  	0,003968  	0,004059  	0,004266  	-0,000000  	-0,000000  	23,298986  	20,070667  	21,067815  	22,661834  	28,132159  	26,622160  	28,100631  	29,123946  	35,004416  	33,650970  	37,154333  	57,461795  	24,582206  	23,840220  	25,334008  	62,078804  	0,054479  	0,027605  	-1990,613577  	22587,113682  	-0,022203  	-0,050005  	0,237109  	0,120145  	-3,716261  	5008,053934  	11409,479865  	1,654805  	-0,047956  
154,601000  	17,199588  	34,447806  	22,258233  	357,439972  	70,627952  	63,236527  	0,004494  	0,006330  	0,003967  	0,004087  	0,004240  	-0,000002  	-0,000000  	23,316259  	20,067213  	21,067173  	22,668904  	28,129681  	26,622467  	28,108242  	29,139466  	35,014494  	33,658627  	37,168977  	57,463283  	24,572694  	23,827544  	25,342046  	62,080558  	0,077119  	0,039077  	-2819,422755  	12638,148417  	-0,036588  	-0,050022  	0,216030  	0,109464  	-3,387046  	4999,659378  	11575,006014  	1,678813  	-0,047970  
155,601000  	17,187356  	34,453168  	22,258970  	1256,670793  	70,628949  	63,223286  	0,004501  	0,006327  	0,003966  	0,004097  	0,004223  	-0,000001  	-0,000000  	23,298395  	20,060168  	21,069332  	22,654750  	28,128984  	26,619526  	28,091763  	29,122208  	35,016781  	33,644681  	37,163677  	57,459596  	24,560639  	23,809578  	25,331872  	62,071406  	0,084888  	0,043013  	-3106,599564  	25627,881897  	-0,018557  	-0,050008  	0,202961  	0,102842  	-3,188262  	4994,400931  	11721,142401  	1,700008  	-0,047958  
156,598000  	17,178650  	34,458221  	22,258970  	1256,670793  	70,633186  	63,202647  	0,004494  	0,006327  	0,003963  	0,004115  	0,004204  	-0,000000  	-0,000000  	23,314289  	20,050531  	21,082986  	22,675041  	28,135264  	26,626086  	28,103392  	29,121644  	35,018853  	33,651149  	37,167557  	57,470539  	24,561907  	23,811955  	25,352618  	62,094600  	0,099588  	0,050462  	-3647,494571  	25624,177796  	-0,018555  	-0,050000  	0,188003  	0,095263  	-2,963216  	4993,440219  	11562,818567  	1,677045  	-0,047952  
157,604000  	17,175002  	34,459485  	22,259185  	1256,670793  	70,637796  	63,200347  	0,004482  	0,006317  	0,003963  	0,004061  	0,004225  	-0,000001  	-0,000000  	23,296019  	20,053059  	21,058538  	22,666114  	28,125232  	26,607180  	28,081523  	29,120812  	34,995176  	33,632017  	37,157180  	57,451550  	24,546100  	23,777434  	25,325755  	62,063762  	0,056112  	0,028432  	-2055,735852  	25627,201269  	-0,018557  	-0,050007  	0,204634  	0,103690  	-3,228345  	4972,893861  	11304,114230  	1,639523  	-0,047957  
158,600000  	17,184137  	34,460039  	22,259431  	1256,670793  	70,641472  	63,206004  	0,004489  	0,006323  	0,003964  	0,004081  	0,004231  	-0,000001  	-0,000000  	23,293717  	20,054532  	21,055855  	22,674309  	28,117047  	26,620583  	28,082322  	29,113297  	34,996696  	33,625413  	37,151356  	57,448184  	24,553055  	23,782399  	25,327613  	62,068799  	0,072421  	0,036696  	-2651,912110  	25631,417161  	-0,018560  	-0,050016  	0,209126  	0,105966  	-3,298326  	4985,037174  	11458,060187  	1,661851  	-0,047965  
159,600000  	17,208049  	34,459577  	22,258418  	357,439972  	70,645896  	63,207682  	0,004499  	0,006333  	0,003963  	0,004073  	0,004233  	-0,000001  	-0,000000  	23,297842  	20,061170  	21,063222  	22,664893  	28,130696  	26,621112  	28,089943  	29,119773  	35,001409  	33,644316  	37,144494  	57,455165  	24,575305  	23,775477  	25,334786  	62,071577  	0,065526  	0,033202  	-2396,035170  	12637,125226  	-0,036585  	-0,050018  	0,210925  	0,106877  	-3,327938  	5007,196510  	11687,828163  	1,695176  	-0,047967  
160,600000  	17,223071  	34,460070  	22,258356  	956,927186  	70,649012  	63,215515  	0,004495  	0,006325  	0,003963  	0,004118  	0,004237  	-0,000001  	-0,000000  	23,296673  	20,068153  	21,058208  	22,661236  	28,126891  	26,622619  	28,097372  	29,121615  	35,017334  	33,652062  	37,154083  	57,453936  	24,575520  	23,783931  	25,333506  	62,085547  	0,102358  	0,051866  	-3739,702946  	22592,549831  	-0,022208  	-0,050019  	0,214189  	0,108531  	-3,377290  	4990,357169  	11598,554760  	1,682228  	-0,047967  
161,599000  	17,229264  	34,451257  	22,259216  	1256,670793  	70,650943  	63,219027  	0,004478  	0,006321  	0,003963  	0,004120  	0,004260  	-0,000001  	-0,000000  	23,295517  	20,055623  	21,065782  	22,652102  	28,117692  	26,611820  	28,092329  	29,122158  	35,001779  	33,648073  	37,155657  	57,448584  	24,565206  	23,758398  	25,321429  	62,085157  	0,103903  	0,052648  	-3792,820651  	25627,742563  	-0,018557  	-0,050008  	0,232484  	0,117802  	-3,664989  	4981,578470  	11231,752146  	1,629028  	-0,047958  
162,599000  	17,232452  	34,442876  	22,259646  	1256,670793  	70,651442  	63,216727  	0,004489  	0,006331  	0,003962  	0,004098  	0,004245  	-0,000000  	-0,000000  	23,296305  	20,055338  	21,064562  	22,655026  	28,121742  	26,617875  	28,083326  	29,128079  	35,006607  	33,648771  	37,163886  	57,458203  	24,570099  	23,751619  	25,334657  	62,086504  	0,085768  	0,043460  	-3128,747683  	25625,670136  	-0,018556  	-0,050003  	0,220231  	0,111593  	-3,473135  	5002,924242  	11467,416135  	1,663208  	-0,047954  
163,603000  	17,232636  	34,442044  	22,259554  	1256,670793  	70,651286  	63,212780  	0,004499  	0,006332  	0,003960  	0,004122  	0,004238  	-0,000000  	-0,000000  	23,303512  	20,064651  	21,068436  	22,670756  	28,137495  	26,621956  	28,085147  	29,125004  	35,011263  	33,645352  	37,170252  	57,466984  	24,578977  	23,753641  	25,339913  	62,089491  	0,105096  	0,053253  	-3833,560678  	25626,388054  	-0,018556  	-0,050005  	0,214363  	0,108619  	-3,382307  	5004,895895  	11677,017629  	1,693608  	-0,047956  
164,599000  	17,231410  	34,444325  	22,258203  	1256,670793  	70,648794  	63,216199  	0,004495  	0,006328  	0,003962  	0,004116  	0,004248  	0,000001  	-0,000001  	23,298318  	20,052993  	21,063281  	22,671433  	28,128510  	26,612080  	28,086600  	29,118012  	35,008696  	33,636468  	37,166143  	57,467249  	24,571387  	23,749370  	25,331829  	62,088787  	0,100215  	0,050780  	-3656,261234  	25621,217312  	-0,018553  	-0,049994  	0,222995  	0,112993  	-3,515722  	4996,024520  	11592,383365  	1,681333  	-0,047946  
165,602000  	17,222397  	34,438070  	22,259339  	57,696365  	70,643404  	63,227295  	0,004480  	0,006322  	0,003960  	0,004088  	0,004223  	0,000002  	-0,000000  	23,291735  	20,051543  	21,064369  	22,674027  	28,129076  	26,616507  	28,086918  	29,120103  	34,999488  	33,638184  	37,158788  	57,466186  	24,569953  	23,752008  	25,331854  	62,090991  	0,078299  	0,039675  	-2857,130841  	1926,678048  	-0,054059  	-0,049980  	0,203186  	0,102956  	-3,196303  	4982,617708  	11272,078050  	1,634877  	-0,047934  
166,600000  	17,224849  	34,433201  	22,259400  	657,183579  	70,635802  	63,219836  	0,004485  	0,006329  	0,003961  	0,004121  	0,004224  	0,000001  	-0,000000  	23,297364  	20,064453  	21,065509  	22,670358  	28,131092  	26,621529  	28,093479  	29,121823  	35,000906  	33,641727  	37,155687  	57,464352  	24,573681  	23,759582  	25,333219  	62,084495  	0,104688  	0,053046  	-3818,453399  	18566,299205  	-0,027624  	-0,049989  	0,203713  	0,103223  	-3,204534  	4997,879444  	11383,021948  	1,650968  	-0,047942  
167,600000  	17,235150  	34,435789  	22,260874  	-242,047242  	70,632594  	63,238734  	0,004497  	0,006309  	0,003961  	0,004093  	0,004225  	0,000000  	-0,000000  	23,297758  	20,067128  	21,068054  	22,658975  	28,127328  	26,620982  	28,095444  	29,125204  	35,009642  	33,649431  	37,161537  	57,461191  	24,573537  	23,763511  	25,333849  	62,082041  	0,082297  	0,041700  	-3000,399106  	-27015,296056  	-0,103713  	-0,049995  	0,204446  	0,103594  	-3,206485  	4954,793144  	11630,280253  	1,686830  	-0,047947  
168,602000  	17,239196  	34,444602  	22,263268  	956,927186  	70,631534  	63,239729  	0,004497  	0,006330  	0,003962  	0,004090  	0,004214  	0,000001  	-0,000000  	23,302564  	20,064997  	21,067733  	22,655658  	28,126990  	26,616432  	28,096972  	29,127918  	35,014151  	33,655062  	37,159415  	57,460701  	24,574141  	23,758019  	25,339507  	62,090109  	0,079427  	0,040246  	-2896,570481  	22578,988779  	-0,022195  	-0,049986  	0,196033  	0,099331  	-3,073685  	5001,291457  	11644,910838  	1,688952  	-0,047939  
169,600000  	17,251398  	34,452305  	22,265418  	-242,047242  	70,627983  	63,227544  	0,004488  	0,006326  	0,003969  	0,004096  	0,004209  	0,000000  	-0,000000  	23,298011  	20,058198  	21,067116  	22,657178  	28,118015  	26,611801  	28,091666  	29,128132  	35,012902  	33,646856  	37,161702  	57,461695  	24,565711  	23,751412  	25,338738  	62,088994  	0,084658  	0,042897  	-3086,542296  	-27017,481096  	-0,103720  	-0,049999  	0,191830  	0,097202  	-3,011295  	4992,551667  	11438,359736  	1,658994  	-0,047951  
170,600000  	17,260411  	34,454031  	22,267075  	357,439972  	70,623808  	63,231274  	0,004483  	0,006337  	0,003966  	0,004074  	0,004270  	0,000000  	-0,000000  	23,290413  	20,053803  	21,063825  	22,661769  	28,116401  	26,610969  	28,082556  	29,119902  	35,005157  	33,634379  	37,165731  	57,463724  	24,556829  	23,744962  	25,335950  	62,086713  	0,066508  	0,033700  	-2423,765186  	12632,455035  	-0,036572  	-0,049999  	0,240469  	0,121848  	-3,770787  	5015,078874  	11343,204443  	1,645193  	-0,047950  
171,600000  	17,261423  	34,454308  	22,268089  	357,439972  	70,626020  	63,220706  	0,004493  	0,006313  	0,003968  	0,004101  	0,004274  	-0,000001  	-0,000000  	23,291950  	20,059033  	21,059831  	22,661636  	28,124916  	26,614123  	28,080250  	29,114284  	34,999999  	33,630651  	37,158972  	57,461954  	24,551568  	23,742441  	25,337445  	62,090185  	0,088198  	0,044691  	-3214,099469  	12636,583664  	-0,036584  	-0,050017  	0,243203  	0,123233  	-3,820242  	4963,114126  	11555,326747  	1,675958  	-0,047966  
172,600000  	17,258725  	34,455109  	22,269317  	-242,047242  	70,626207  	63,219525  	0,004500  	0,006344  	0,003966  	0,004083  	0,004268  	-0,000002  	-0,000000  	23,288061  	20,059674  	21,055982  	22,653761  	28,118921  	26,616382  	28,082892  	29,111842  	34,996583  	33,630727  	37,149401  	57,452288  	24,542936  	23,745403  	25,332877  	62,084863  	0,074056  	0,037525  	-2699,279785  	-27029,076202  	-0,103763  	-0,050023  	0,238554  	0,120877  	-3,747910  	5029,945148  	11694,529141  	1,696148  	-0,047971  
173,599000  	17,252072  	34,456711  	22,271282  	1256,670793  	70,621721  	63,209640  	0,004492  	0,006329  	0,003963  	0,004099  	0,004243  	-0,000000  	-0,000000  	23,286828  	20,058354  	21,050471  	22,652835  	28,117226  	26,617419  	28,087847  	29,108660  	34,992651  	33,636920  	37,144091  	57,451128  	24,544596  	23,751471  	25,328449  	62,084377  	0,086884  	0,044025  	-3168,361646  	25626,584837  	-0,018557  	-0,050006  	0,218379  	0,110654  	-3,433436  	4998,897459  	11536,395956  	1,673213  	-0,047957  
174,600000  	17,243121  	34,457451  	22,272755  	1256,670793  	70,615989  	63,211008  	0,004482  	0,006326  	0,003963  	0,004084  	0,004237  	-0,000001  	-0,000000  	23,295288  	20,062019  	21,055852  	22,654363  	28,125958  	26,619294  	28,090455  	29,121722  	35,003520  	33,651098  	37,148389  	57,460253  	24,551751  	23,760478  	25,330876  	62,094417  	0,074794  	0,037899  	-2729,030499  	25629,135773  	-0,018559  	-0,050012  	0,214025  	0,108448  	-3,361749  	4992,425742  	11301,755825  	1,639181  	-0,047962  
175,601000  	17,237878  	34,454493  	22,273584  	1256,670793  	70,616269  	63,214769  	0,004489  	0,006322  	0,003962  	0,004096  	0,004257  	0,000001  	-0,000001  	23,299652  	20,056017  	21,059278  	22,652689  	28,116667  	26,612590  	28,088572  	29,122852  	35,008492  	33,650338  	37,153103  	57,454597  	24,546700  	23,755405  	25,331787  	62,090612  	0,084144  	0,042636  	-3070,585536  	25616,116568  	-0,018549  	-0,049984  	0,229971  	0,116528  	-3,610535  	4982,608511  	11466,067467  	1,663012  	-0,047937  
176,600000  	17,242109  	34,464723  	22,274628  	57,696365  	70,620630  	63,207682  	0,004498  	0,006322  	0,003961  	0,004088  	0,004242  	0,000001  	-0,000000  	23,299385  	20,051356  	21,055699  	22,645953  	28,112724  	26,606464  	28,079363  	29,116432  	35,001394  	33,644110  	37,158218  	57,451009  	24,535982  	23,756483  	25,334745  	62,090421  	0,077922  	0,039484  	-2844,534337  	1926,188952  	-0,054068  	-0,049991  	0,218288  	0,110608  	-3,432407  	4982,361613  	11654,732819  	1,690376  	-0,047944  
177,603000  	17,259982  	34,463737  	22,274014  	57,696365  	70,620381  	63,216479  	0,004497  	0,006335  	0,003963  	0,004108  	0,004223  	0,000000  	-0,000000  	23,298500  	20,044288  	21,061212  	22,644977  	28,116666  	26,606982  	28,072356  	29,109176  	35,001655  	33,642257  	37,162594  	57,455177  	24,537180  	23,752897  	25,325880  	62,096582  	0,094387  	0,047827  	-3441,811120  	1926,519702  	-0,054076  	-0,050000  	0,202878  	0,102800  	-3,186209  	5010,682804  	11643,025526  	1,688678  	-0,047951  
178,600000  	17,269547  	34,458992  	22,274628  	1256,670793  	70,623808  	63,212438  	0,004478  	0,006323  	0,003966  	0,004076  	0,004253  	-0,000000  	-0,000000  	23,296845  	20,059049  	21,065791  	22,662938  	28,124270  	26,615576  	28,085353  	29,110854  	35,002080  	33,642793  	37,164062  	57,458565  	24,551218  	23,754716  	25,339243  	62,107714  	0,067878  	0,034394  	-2473,102914  	25625,380255  	-0,018556  	-0,050004  	0,226581  	0,114810  	-3,562042  	4985,741790  	11220,687413  	1,627423  	-0,047955  
179,599000  	17,270926  	34,459269  	22,275273  	357,439972  	70,626924  	63,223970  	0,004491  	0,006330  	0,003966  	0,004041  	0,004220  	-0,000001  	-0,000000  	23,295837  	20,059678  	21,058237  	22,663771  	28,118089  	26,614184  	28,091857  	29,100460  	34,999559  	33,633981  	37,160111  	57,454483  	24,553589  	23,749386  	25,331818  	62,092714  	0,040206  	0,020373  	-1464,778895  	12636,234626  	-0,036584  	-0,050017  	0,200468  	0,101579  	-3,147955  	5000,182889  	11505,934399  	1,668795  	-0,047966  
180,601000  	17,268903  	34,465432  	22,276562  	956,927186  	70,624992  	63,219680  	0,004499  	0,006325  	0,003966  	0,004088  	0,004259  	-0,000001  	-0,000000  	23,289399  	20,055613  	21,054920  	22,666468  	28,119889  	26,614915  	28,087435  	29,108361  	35,005661  	33,640402  	37,150080  	57,450782  	24,554477  	23,750995  	25,328869  	62,096861  	0,078146  	0,039597  	-2848,381814  	22587,551906  	-0,022204  	-0,050008  	0,231116  	0,117108  	-3,630371  	4990,569403  	11680,435198  	1,694104  	-0,047958  
181,600000  	17,264672  	34,465216  	22,275580  	57,696365  	70,620599  	63,224312  	0,004496  	0,006322  	0,003965  	0,004095  	0,004262  	-0,000001  	-0,000000  	23,276577  	20,062224  	21,060374  	22,641033  	28,120847  	26,602132  	28,083133  	29,113058  	34,994576  	33,644439  	37,156980  	57,450014  	24,560010  	23,744441  	25,333005  	62,090155  	0,083354  	0,042236  	-3038,904648  	1926,968570  	-0,054091  	-0,050015  	0,233456  	0,118294  	-3,662667  	4983,831686  	11605,015661  	1,683165  	-0,047964  
182,599000  	17,261729  	34,461580  	22,276132  	657,183579  	70,619540  	63,216479  	0,004482  	0,006320  	0,003963  	0,004078  	0,004237  	-0,000000  	-0,000000  	23,295481  	20,057385  	21,052148  	22,647021  	28,107154  	26,605723  	28,091797  	29,123201  	34,999836  	33,649267  	37,148971  	57,463909  	24,552792  	23,752957  	25,343279  	62,085292  	0,069493  	0,035213  	-2533,461850  	18570,371623  	-0,027631  	-0,050003  	0,213859  	0,108364  	-3,358286  	4978,232250  	11303,521098  	1,639437  	-0,047954  
183,603000  	17,255935  	34,454185  	22,277422  	657,183579  	70,626550  	63,210573  	0,004487  	0,006336  	0,003960  	0,004105  	0,004212  	0,000000  	-0,000000  	23,298766  	20,057204  	21,068151  	22,652600  	28,115005  	26,607156  	28,085408  	29,115190  	35,001010  	33,650442  	37,164135  	57,458853  	24,553138  	23,738062  	25,347544  	62,088543  	0,091524  	0,046376  	-3336,328503  	18567,433751  	-0,027626  	-0,049994  	0,193778  	0,098189  	-3,048258  	5012,614132  	11419,033524  	1,656191  	-0,047947  
184,600000  	17,255383  	34,453137  	22,277729  	1256,670793  	70,632843  	63,211940  	0,004497  	0,006320  	0,003965  	0,004081  	0,004217  	0,000001  	-0,000000  	23,299263  	20,051920  	21,056017  	22,661120  	28,126352  	26,612294  	28,089656  	29,112631  	35,009213  	33,647454  	37,165165  	57,466124  	24,556838  	23,759500  	25,333533  	62,092786  	0,072109  	0,036538  	-2628,517929  	25620,308899  	-0,018552  	-0,049993  	0,198465  	0,100564  	-3,124057  	4979,337281  	11635,851455  	1,687638  	-0,047945  
185,601000  	17,267064  	34,458375  	22,277299  	57,696365  	70,632126  	63,219400  	0,004496  	0,006325  	0,003967  	0,004057  	0,004257  	-0,000000  	-0,000000  	23,294293  	20,056925  	21,061896  	22,665511  	28,125975  	26,609651  	28,079786  	29,116959  	35,004716  	33,646063  	37,169035  	57,458414  	24,569993  	23,760444  	25,336395  	62,095488  	0,052904  	0,026807  	-1927,739165  	1926,402223  	-0,054078  	-0,050002  	0,229905  	0,116495  	-3,614972  	4990,608312  	11612,394503  	1,684235  	-0,047953  
186,601000  	17,271601  	34,458252  	22,276685  	657,183579  	70,629945  	63,222820  	0,004492  	0,006340  	0,003967  	0,004095  	0,004212  	-0,000002  	-0,000000  	23,293028  	20,053081  	21,059196  	22,663221  	28,121047  	26,622356  	28,088205  	29,118359  	34,997662  	33,643741  	37,160292  	57,454113  	24,568844  	23,775440  	25,342533  	62,092703  	0,083465  	0,042292  	-3040,512986  	18576,459078  	-0,027640  	-0,050022  	0,194184  	0,098395  	-3,051003  	5021,387879  	11534,157589  	1,672888  	-0,047970  
187,601000  	17,260380  	34,452336  	22,276961  	657,183579  	70,627266  	63,226985  	0,004484  	0,006320  	0,003963  	0,004086  	0,004233  	-0,000001  	-0,000000  	23,294748  	20,058614  	21,055533  	22,655569  	28,115641  	26,628465  	28,090138  	29,122636  	34,999339  	33,638721  	37,158123  	57,459499  	24,574956  	23,781972  	25,338707  	62,099854  	0,076413  	0,038719  	-2784,476097  	18574,338192  	-0,027637  	-0,050015  	0,210992  	0,106911  	-3,312018  	4977,833250  	11357,418424  	1,647254  	-0,047964  
188,601000  	17,246523  	34,454554  	22,276654  	1256,670793  	70,629696  	63,225368  	0,004492  	0,006319  	0,003958  	0,004122  	0,004216  	-0,000000  	-0,000000  	23,295524  	20,062617  	21,061972  	22,651053  	28,120825  	26,628612  	28,102649  	29,129139  	35,005878  	33,642230  	37,161320  	57,453517  	24,575348  	23,787168  	25,339210  	62,097975  	0,105340  	0,053376  	-3842,144204  	25623,796394  	-0,018555  	-0,050001  	0,197619  	0,100135  	-3,103789  	4977,286394  	11517,352187  	1,670451  	-0,047952  
189,600000  	17,249405  	34,460039  	22,277668  	1256,670793  	70,633435  	63,215515  	0,004497  	0,006333  	0,003963  	0,004113  	0,004250  	0,000002  	-0,000000  	23,294777  	20,064583  	21,051000  	22,647566  	28,118782  	26,619014  	28,095281  	29,119322  	35,003848  	33,643437  	37,160628  	57,453302  	24,573937  	23,773711  	25,333271  	62,089498  	0,098229  	0,049774  	-3583,343601  	25613,371966  	-0,018547  	-0,049978  	0,223871  	0,113437  	-3,522550  	5007,082611  	11631,028729  	1,686938  	-0,047932  
190,601000  	17,265224  	34,469961  	22,277238  	1256,670793  	70,637298  	63,210355  	0,004494  	0,006329  	0,003967  	0,004056  	0,004222  	0,000000  	-0,000000  	23,295614  	20,059751  	21,057598  	22,650160  	28,122081  	26,609181  	28,084468  	29,120688  	35,004987  	33,645895  	37,158192  	57,459315  	24,574241  	23,764982  	25,338777  	62,090494  	0,052009  	0,026353  	-1896,604634  	25623,458449  	-0,018555  	-0,050000  	0,201901  	0,102305  	-3,180727  	4998,980938  	11580,075879  	1,679548  	-0,047951  
191,601000  	17,269731  	34,468112  	22,276501  	1256,670793  	70,637298  	63,231803  	0,004482  	0,006318  	0,003964  	0,004084  	0,004245  	-0,000001  	-0,000000  	23,304943  	20,061916  	21,066335  	22,664276  	28,129318  	26,619615  	28,083058  	29,123268  	35,000159  	33,650459  	37,171303  	57,470698  	24,586031  	23,767369  	25,346621  	62,097531  	0,074848  	0,037926  	-2728,460845  	25627,137627  	-0,018557  	-0,050008  	0,219961  	0,111456  	-3,455239  	4974,639131  	11317,085459  	1,641404  	-0,047958  
192,598000  	17,267585  	34,462997  	22,276071  	1256,670793  	70,634619  	63,228819  	0,004488  	0,006336  	0,003961  	0,004124  	0,004238  	-0,000000  	-0,000000  	23,300701  	20,053066  	21,066233  	22,669055  	28,129805  	26,620029  	28,083471  	29,115740  	34,999765  	33,643915  	37,168218  	57,461402  	24,591622  	23,757890  	25,345272  	62,094066  	0,107330  	0,054385  	-3911,874721  	25625,410293  	-0,018556  	-0,050004  	0,214562  	0,108720  	-3,370575  	5014,167684  	11444,481704  	1,659882  	-0,047955  
193,600000  	17,283373  	34,465277  	22,275303  	57,696365  	70,633030  	63,223379  	0,004499  	0,006326  	0,003960  	0,004088  	0,004216  	-0,000000  	-0,000000  	23,287633  	20,053361  	21,061656  	22,670753  	28,126720  	26,621068  	28,087986  	29,115911  	34,999031  	33,640956  	37,166633  	57,458842  	24,593230  	23,753153  	25,345689  	62,091269  	0,077889  	0,039467  	-2836,599122  	1926,479509  	-0,054077  	-0,050001  	0,197249  	0,099948  	-3,100214  	4991,358205  	11688,138851  	1,695221  	-0,047952  
194,600000  	17,293981  	34,462258  	22,275181  	1256,670793  	70,633653  	63,229036  	0,004495  	0,006326  	0,003962  	0,004085  	0,004257  	0,000000  	-0,000000  	23,288323  	20,069843  	21,057303  	22,670586  	28,123702  	26,629881  	28,098222  	29,129954  	34,999012  	33,647764  	37,166045  	57,460923  	24,599465  	23,758451  	25,350757  	62,101061  	0,075717  	0,038366  	-2755,282559  	25621,783989  	-0,018553  	-0,049996  	0,229510  	0,116294  	-3,604816  	4991,491913  	11588,732780  	1,680804  	-0,047948  
195,604000  	17,297016  	34,459115  	22,273891  	357,439972  	70,631970  	63,215297  	0,004479  	0,006327  	0,003969  	0,004046  	0,004254  	0,000000  	-0,000000  	23,295492  	20,071361  	21,062286  	22,665650  	28,121302  	26,627245  	28,099012  	29,137804  	34,995832  	33,657997  	37,163054  	57,458308  	24,606517  	23,757611  	25,346552  	62,099491  	0,043697  	0,022141  	-1589,519018  	12632,021943  	-0,036572  	-0,049998  	0,227108  	0,115077  	-3,572884  	4994,501389  	11252,998976  	1,632110  	-0,047950  
196,600000  	17,294686  	34,457451  	22,273768  	956,927186  	70,629665  	63,212873  	0,004490  	0,006334  	0,003966  	0,004077  	0,004253  	-0,000001  	-0,000000  	23,302472  	20,064905  	21,072513  	22,660996  	28,122301  	26,623370  	28,095031  	29,134170  	34,999238  	33,660857  	37,165267  	57,457469  	24,607427  	23,756860  	25,343588  	62,096178  	0,068919  	0,034922  	-2507,105449  	22589,725548  	-0,022206  	-0,050013  	0,226502  	0,114770  	-3,563406  	5007,896174  	11486,636431  	1,665996  	-0,047963  
197,599000  	17,296065  	34,468451  	22,273922  	1256,670793  	70,625428  	63,220302  	0,004499  	0,006331  	0,003962  	0,004092  	0,004246  	0,000001  	-0,000000  	23,303202  	20,061421  	21,073485  	22,658417  	28,120692  	26,621841  	28,091379  	29,125182  	35,009392  	33,655303  	37,169699  	57,459221  	24,600698  	23,758254  	25,347572  	62,099138  	0,080905  	0,040995  	-2944,780671  	25618,663142  	-0,018551  	-0,049989  	0,220907  	0,111935  	-3,469931  	5001,447095  	11682,574710  	1,694414  	-0,047942  
198,599000  	17,306060  	34,480592  	22,273553  	1256,670793  	70,622624  	63,221732  	0,004495  	0,006333  	0,003964  	0,004077  	0,004252  	-0,000000  	-0,000000  	23,296426  	20,057313  	21,067434  	22,661083  	28,118800  	26,616522  	28,085608  	29,115075  	35,008207  	33,647674  	37,172343  	57,458357  	24,594901  	23,760229  	25,340026  	62,096750  	0,069093  	0,035010  	-2515,156238  	25625,728537  	-0,018556  	-0,050005  	0,225672  	0,114350  	-3,542746  	5007,844530  	11587,793654  	1,680667  	-0,047955  
199,600000  	17,309095  	34,476617  	22,274382  	1256,670793  	70,621659  	63,224280  	0,004490  	0,006324  	0,003967  	0,004085  	0,004246  	0,000000  	-0,000000  	23,295047  	20,060878  	21,068530  	22,673522  	28,126402  	26,622222  	28,088651  	29,116963  	35,004820  	33,645737  	37,173610  	57,458796  	24,604544  	23,770046  	25,339674  	62,099718  	0,075548  	0,038281  	-2749,037736  	25622,607401  	-0,018554  	-0,049998  	0,220941  	0,111952  	-3,466827  	4988,285767  	11484,751119  	1,665722  	-0,047950  
200,601000  	17,294624  	34,473535  	22,274444  	1256,670793  	70,626145  	63,228383  	0,004485  	0,006330  	0,003962  	0,004067  	0,004246  	-0,000001  	-0,000000  	23,298773  	20,064838  	21,071873  	22,680559  	28,131564  	26,633012  	28,095820  	29,123958  	35,006877  	33,651677  	37,169511  	57,463387  	24,620112  	23,779049  	25,356633  	62,104587  	0,061244  	0,031033  	-2230,025006  	25626,864851  	-0,018557  	-0,050007  	0,221306  	0,112138  	-3,472744  	4999,462001  	11372,126681  	1,649388  	-0,047957  
201,599000  	17,288033  	34,479359  	22,273861  	57,696365  	70,634619  	63,229782  	0,004492  	0,006330  	0,003959  	0,004101  	0,004241  	0,000000  	-0,000000  	23,305048  	20,068137  	21,063827  	22,667097  	28,127323  	26,637029  	28,096887  	29,118122  	34,998624  	33,651677  	37,161582  	57,458333  	24,618291  	23,786953  	25,345009  	62,104665  	0,088279  	0,044731  	-3216,723050  	1926,368658  	-0,054072  	-0,049995  	0,217455  	0,110186  	-3,415572  	4999,619054  	11519,788264  	1,670804  	-0,047947  
202,600000  	17,295146  	34,487371  	22,272755  	657,183579  	70,638544  	63,227793  	0,004498  	0,006333  	0,003960  	0,004132  	0,004221  	0,000000  	-0,000000  	23,303705  	20,070516  	21,064907  	22,658856  	28,125470  	26,636630  	28,100243  	29,129671  	34,997716  	33,662244  	37,170731  	57,460121  	24,623449  	23,794221  	25,342638  	62,100906  	0,113868  	0,057698  	-4149,367868  	18567,431694  	-0,027626  	-0,049994  	0,201642  	0,102174  	-3,169728  	5007,846653  	11657,747906  	1,690813  	-0,047946  
203,600000  	17,288799  	34,486446  	22,272939  	-242,047242  	70,641317  	63,221172  	0,004494  	0,006311  	0,003966  	0,004085  	0,004239  	-0,000000  	-0,000000  	23,309858  	20,086583  	21,080088  	22,667525  	28,136525  	26,635717  	28,107996  	29,147810  	35,013571  	33,670751  	37,183507  	57,467606  	24,635501  	23,803307  	25,361552  	62,107147  	0,075507  	0,038260  	-2752,346726  	-27019,060168  	-0,103723  	-0,050002  	0,215325  	0,109107  	-3,389112  	4959,145353  	11569,208857  	1,677972  	-0,047953  
204,600000  	17,287389  	34,471656  	22,272080  	956,927186  	70,641877  	63,223970  	0,004480  	0,006347  	0,003966  	0,004092  	0,004218  	-0,000002  	-0,000000  	23,306970  	20,075643  	21,078809  	22,662735  	28,121713  	26,614229  	28,100264  	29,126947  	35,006532  	33,651660  	37,167666  	57,460624  	24,619029  	23,770862  	25,337418  	62,096232  	0,081036  	0,041062  	-2951,610605  	22592,584489  	-0,022208  	-0,050020  	0,199304  	0,100989  	-3,135999  	5037,772332  	11272,628815  	1,634957  	-0,047969  
205,599000  	17,299928  	34,463614  	22,272387  	57,696365  	70,641784  	63,228383  	0,004489  	0,006327  	0,003962  	0,004113  	0,004241  	-0,000000  	-0,000000  	23,310437  	20,074394  	21,077186  	22,659311  	28,126944  	26,630094  	28,091544  	29,127293  	35,011318  	33,654860  	37,176631  	57,454655  	24,626079  	23,761514  	25,344906  	62,100824  	0,098320  	0,049820  	-3576,865791  	1926,630747  	-0,054077  	-0,050000  	0,217021  	0,109966  	-3,412692  	4994,859356  	11470,544200  	1,663662  	-0,047952  
206,599000  	17,314337  	34,473104  	22,271097  	1256,670793  	70,643653  	63,225959  	0,004499  	0,006325  	0,003962  	0,004102  	0,004226  	0,000001  	-0,000000  	23,312359  	20,060735  	21,077810  	22,675670  	28,133415  	26,624695  	28,093384  	29,131790  	35,013451  	33,644514  	37,173278  	57,460249  	24,624938  	23,740809  	25,350831  	62,094315  	0,089040  	0,045117  	-3238,315085  	25619,512984  	-0,018552  	-0,049991  	0,205035  	0,103893  	-3,226090  	4988,918931  	11681,776806  	1,694298  	-0,047944  
207,600000  	17,323166  	34,481424  	22,272018  	357,439972  	70,645273  	63,213868  	0,004496  	0,006330  	0,003967  	0,004091  	0,004217  	-0,000001  	-0,000000  	23,298221  	20,068862  	21,066599  	22,670161  	28,133830  	26,622541  	28,094939  	29,114587  	34,999286  	33,637532  	37,165226  	57,449618  	24,616957  	23,712362  	25,337626  	62,087876  	0,080110  	0,040593  	-2913,459890  	12634,744159  	-0,036579  	-0,050010  	0,198408  	0,100535  	-3,127579  	5001,071441  	11603,045616  	1,682879  	-0,047960  
208,600000  	17,332180  	34,482903  	22,271834  	956,927186  	70,646395  	63,213495  	0,004480  	0,006326  	0,003963  	0,004070  	0,004243  	-0,000002  	-0,000000  	23,298137  	20,066998  	21,058545  	22,665891  	28,128919  	26,634396  	28,099271  	29,118062  	34,997697  	33,642091  	37,173564  	57,447695  	24,624285  	23,692650  	25,341629  	62,091985  	0,063371  	0,032110  	-2303,659715  	22592,140391  	-0,022208  	-0,050019  	0,218798  	0,110867  	-3,449691  	4991,861907  	11258,605484  	1,632923  	-0,047968  
209,601000  	17,326723  	34,482102  	22,274290  	1256,670793  	70,643809  	63,239076  	0,004489  	0,006338  	0,003959  	0,004093  	0,004204  	0,000000  	-0,000000  	23,296759  	20,086697  	21,070601  	22,666372  	28,138368  	26,634173  	28,110778  	29,124286  	34,999773  	33,657211  	37,170854  	57,454238  	24,627082  	23,676050  	25,346268  	62,089320  	0,081659  	0,041377  	-2969,291254  	25623,133912  	-0,018554  	-0,049999  	0,187772  	0,095146  	-2,949310  	5018,116648  	11453,922386  	1,661251  	-0,047950  
210,602000  	17,315502  	34,483457  	22,275089  	1256,670793  	70,646613  	63,250888  	0,004497  	0,006311  	0,003968  	0,004078  	0,004236  	0,000000  	-0,000000  	23,308321  	20,070715  	21,069298  	22,667512  	28,124268  	26,629339  	28,096236  	29,142844  	35,005506  	33,664708  	37,167910  	57,450258  	24,632298  	23,649569  	25,341520  	62,102141  	0,069449  	0,035190  	-2527,164718  	25622,751455  	-0,018554  	-0,049998  	0,213533  	0,108199  	-3,349849  	4959,748804  	11625,090349  	1,686077  	-0,047950  
211,603000  	17,297567  	34,489928  	22,274444  	357,439972  	70,651411  	63,249738  	0,004497  	0,006337  	0,003963  	0,004096  	0,004238  	-0,000001  	-0,000000  	23,318549  	20,075135  	21,084737  	22,672612  	28,130400  	26,634405  	28,099198  	29,132997  	35,020198  	33,667074  	37,177535  	57,466934  	24,624548  	23,619244  	25,339511  	62,094725  	0,084529  	0,042832  	-3080,289269  	12635,331799  	-0,036581  	-0,050013  	0,215021  	0,108953  	-3,375911  	5015,760853  	11637,941539  	1,687941  	-0,047963  
212,601000  	17,286286  	34,495721  	22,274812  	956,927186  	70,657641  	63,235688  	0,004487  	0,006331  	0,003962  	0,004105  	0,004244  	-0,000000  	-0,000000  	23,315303  	20,078810  	21,076100  	22,677522  	28,138064  	26,629971  	28,099885  	29,138540  	35,014816  	33,664430  	37,191748  	57,467529  	24,622353  	23,616012  	25,351448  	62,083100  	0,091893  	0,046563  	-3351,958898  	22585,769089  	-0,022202  	-0,050003  	0,219166  	0,111053  	-3,450402  	5002,039227  	11427,273820  	1,657386  	-0,047954  
213,598000  	17,295054  	34,494858  	22,276992  	1256,670793  	70,657143  	63,232766  	0,004483  	0,006313  	0,003964  	0,004096  	0,004256  	0,000001  	-0,000000  	23,318154  	20,073718  	21,082428  	22,691441  	28,141647  	26,634250  	28,101591  	29,142422  	35,016895  	33,656272  	37,189544  	57,464575  	24,627183  	23,629106  	25,351931  	62,099126  	0,084664  	0,042900  	-3086,515006  	25615,722521  	-0,018549  	-0,049983  	0,229206  	0,116140  	-3,609647  	4962,773844  	11332,662231  	1,643664  	-0,047937  
214,600000  	17,307623  	34,489928  	22,276992  	1256,670793  	70,652221  	63,239045  	0,004494  	0,006329  	0,003968  	0,004084  	0,004271  	-0,000000  	-0,000000  	23,319335  	20,079870  	21,082300  	22,691276  	28,149209  	26,641434  	28,107772  	29,133509  	35,014611  	33,658341  	37,188139  	57,464664  	24,620851  	23,650000  	25,349772  	62,099501  	0,075006  	0,038006  	-2731,666794  	25624,657946  	-0,018555  	-0,050002  	0,240513  	0,121870  	-3,782006  	4997,220812  	11561,801770  	1,676898  	-0,047954  
215,602000  	17,319763  	34,497046  	22,276439  	1256,670793  	70,650196  	63,237677  	0,004498  	0,006337  	0,003962  	0,004081  	0,004286  	-0,000001  	-0,000000  	23,307244  	20,083146  	21,072869  	22,677892  	28,139204  	26,647786  	28,109304  	29,132299  	35,007934  	33,660559  	37,182759  	57,458140  	24,611116  	23,675987  	25,353297  	62,090389  	0,072050  	0,036508  	-2623,234488  	25628,652003  	-0,018558  	-0,050011  	0,252835  	0,128113  	-3,975405  	5015,080997  	11650,856279  	1,689814  	-0,047961  
216,599000  	17,322277  	34,505612  	22,276194  	1256,670793  	70,646644  	63,241096  	0,004495  	0,006322  	0,003961  	0,004040  	0,004235  	0,000000  	-0,000000  	23,316876  	20,089136  	21,077743  	22,681261  	28,139024  	26,644676  	28,110835  	29,138516  	35,009400  	33,666640  	37,181201  	57,456928  	24,604389  	23,696135  	25,350836  	62,087834  	0,038785  	0,019653  	-1412,605348  	25623,432326  	-0,018555  	-0,050000  	0,212364  	0,107607  	-3,335941  	4982,256911  	11602,516034  	1,682803  	-0,047951  
217,599000  	17,305784  	34,503055  	22,277268  	57,696365  	70,643279  	63,247158  	0,004481  	0,006329  	0,003964  	0,004068  	0,004215  	-0,000001  	-0,000000  	23,323336  	20,088247  	21,085944  	22,679419  	28,129455  	26,637040  	28,110753  	29,142980  	35,006976  	33,674444  	37,182331  	57,464317  	24,590988  	23,712974  	25,351592  	62,092148  	0,061399  	0,031111  	-2238,042059  	1926,587227  	-0,054083  	-0,050007  	0,196193  	0,099412  	-3,077984  	4997,896423  	11288,021999  	1,637189  	-0,047957  
218,603000  	17,297629  	34,504102  	22,276900  	1256,670793  	70,642719  	63,251323  	0,004489  	0,006320  	0,003963  	0,004080  	0,004228  	-0,000000  	-0,000000  	23,323479  	20,086241  	21,086731  	22,682055  	28,133696  	26,633866  	28,110453  	29,149570  	35,012506  	33,678956  	37,192223  	57,468958  	24,584604  	23,731193  	25,354731  	62,096637  	0,071844  	0,036404  	-2620,159869  	25625,726736  	-0,018556  	-0,050005  	0,206789  	0,104781  	-3,242148  	4979,446227  	11465,693229  	1,662958  	-0,047955  
219,599000  	17,293950  	34,513624  	22,276992  	357,439972  	70,641846  	63,247127  	0,004500  	0,006336  	0,003964  	0,004120  	0,004239  	0,000001  	-0,000000  	23,324851  	20,076274  	21,079063  	22,681110  	28,134770  	26,629292  	28,099510  	29,137878  	35,010502  	33,669235  	37,193757  	57,461976  	24,568574  	23,735268  	25,346876  	62,089507  	0,103555  	0,052472  	-3779,572648  	12629,636778  	-0,036565  	-0,049989  	0,215500  	0,109195  	-3,380248  	5013,667519  	11699,048240  	1,696803  	-0,047942  
220,600000  	17,289351  	34,517198  	22,277668  	-242,047242  	70,641659  	63,231274  	0,004495  	0,006321  	0,003965  	0,004086  	0,004246  	-0,000001  	-0,000000  	23,329280  	20,075675  	21,086086  	22,692746  	28,142374  	26,638517  	28,108685  	29,136468  	35,015242  	33,662029  	37,196691  	57,470602  	24,558917  	23,756288  	25,346467  	62,096071  	0,076571  	0,038799  	-2796,053444  	-27022,440187  	-0,103734  	-0,050009  	0,221071  	0,112018  	-3,474976  	4979,981056  	11600,531866  	1,682515  	-0,047959  
221,600000  	17,290118  	34,504565  	22,277422  	1256,670793  	70,642220  	63,232082  	0,004482  	0,006319  	0,003961  	0,004110  	0,004218  	0,000002  	-0,000000  	23,332906  	20,086428  	21,095961  	22,705121  	28,148984  	26,652135  	28,120823  	29,137970  	35,018701  	33,663187  	37,198580  	57,477919  	24,558391  	23,779703  	25,353513  	62,103706  	0,096039  	0,048664  	-3504,206562  	25614,252471  	-0,018548  	-0,049980  	0,199256  	0,100965  	-3,131970  	4977,580692  	11301,021471  	1,639075  	-0,047934  
222,600000  	17,296740  	34,493410  	22,277483  	1256,670793  	70,642781  	63,240599  	0,004487  	0,006333  	0,003965  	0,004088  	0,004239  	-0,000000  	-0,000000  	23,326622  	20,093914  	21,086530  	22,700696  	28,145354  	26,652282  	28,122404  	29,139858  	35,016850  	33,663639  	37,192525  	57,466128  	24,557803  	23,797845  	25,354364  	62,104641  	0,077780  	0,039412  	-2835,043340  	25624,559421  	-0,018555  	-0,050002  	0,215770  	0,109332  	-3,387894  	5007,473121  	11428,919055  	1,657625  	-0,047953  
223,599000  	17,298395  	34,497200  	22,276839  	357,439972  	70,645336  	63,234258  	0,004499  	0,006333  	0,003965  	0,004078  	0,004228  	-0,000000  	-0,000000  	23,318827  	20,094734  	21,077198  	22,688880  	28,139126  	26,644999  	28,119971  	29,149968  	35,017883  	33,669075  	37,182663  	57,459672  	24,555548  	23,822522  	25,350968  	62,099687  	0,069731  	0,035333  	-2541,995712  	12633,593538  	-0,036576  	-0,050006  	0,207176  	0,104978  	-3,256867  	5007,677573  	11674,510941  	1,693245  	-0,047957  
224,600000  	17,295697  	34,509033  	22,277453  	956,927186  	70,648949  	63,223441  	0,004495  	0,006325  	0,003957  	0,004126  	0,004236  	0,000001  	-0,000000  	23,324971  	20,092889  	21,082751  	22,687843  	28,139860  	26,642447  	28,115269  	29,157667  	35,019032  	33,679102  	37,182720  	57,462066  	24,554037  	23,840332  	25,350196  	62,093500  	0,109012  	0,055237  	-3977,308930  	22578,298915  	-0,022194  	-0,049985  	0,212937  	0,107897  	-3,353947  	4990,538983  	11586,219030  	1,680439  	-0,047939  
225,600000  	17,291620  	34,510696  	22,277299  	57,696365  	70,647766  	63,223472  	0,004491  	0,006337  	0,003967  	0,004087  	0,004218  	0,000000  	-0,000000  	23,332175  	20,089661  	21,089781  	22,694253  	28,145741  	26,643328  	28,115514  	29,158249  	35,018569  	33,680944  	37,193387  	57,462627  	24,549270  	23,847115  	25,352404  	62,098581  	0,077000  	0,039016  	-2810,279515  	1926,227161  	-0,054073  	-0,049997  	0,198664  	0,100664  	-3,128619  	5014,924651  	11507,283068  	1,668990  	-0,047948  
226,670000  	17,288493  	34,501576  	22,276501  	1256,670793  	70,641410  	63,230248  	0,004483  	0,006329  	0,003962  	0,004093  	0,004223  	-0,000000  	-0,000000  	23,329210  	20,084093  	21,090432  	22,689799  	28,140721  	26,640298  	28,111679  	29,148014  	35,016506  	33,672876  	37,194176  	57,467791  	24,537589  	23,848874  	25,353644  	62,095051  	0,082097  	0,041599  	-2995,274075  	25625,107359  	-0,018556  	-0,050003  	0,202565  	0,102641  	-3,184409  	4998,289763  	11322,840250  	1,642239  	-0,047954  
227,636000  	17,286929  	34,496122  	22,276132  	1256,670793  	70,634214  	63,234258  	0,004491  	0,006335  	0,003963  	0,004122  	0,004229  	0,000001  	-0,000000  	23,328250  	20,083973  	21,084037  	22,691762  	28,141073  	26,642188  	28,111662  	29,146418  	35,023729  	33,660406  	37,196618  	57,469927  	24,542053  	23,857461  	25,354905  	62,088616  	0,105796  	0,053607  	-3859,017546  	25617,088324  	-0,018550  	-0,049986  	0,207248  	0,105014  	-3,253109  	5010,377187  	11504,755197  	1,668624  	-0,047939  
228,600000  	17,285458  	34,498525  	22,275825  	57,696365  	70,629104  	63,244080  	0,004499  	0,006330  	0,003964  	0,004071  	0,004243  	-0,000001  	-0,000000  	23,322482  	20,090754  	21,087126  	22,696178  	28,147620  	26,649702  	28,113646  	29,146672  	35,023105  	33,660549  	37,195076  	57,470943  	24,544979  	23,869809  	25,354122  	62,088984  	0,063870  	0,032363  	-2330,248138  	1926,887479  	-0,054090  	-0,050013  	0,218351  	0,110640  	-3,420473  	5000,086676  	11671,284021  	1,692777  	-0,047963  
229,599000  	17,291988  	34,496152  	22,275334  	1256,670793  	70,629198  	63,252131  	0,004496  	0,006328  	0,003962  	0,004072  	0,004249  	-0,000001  	-0,000000  	23,322763  	20,095585  	21,097057  	22,706151  	28,156190  	26,656320  	28,120752  	29,151603  	35,017709  	33,670044  	37,194656  	57,472120  	24,549363  	23,880679  	25,356270  	62,105732  	0,064807  	0,032838  	-2363,230642  	25627,336915  	-0,018557  	-0,050008  	0,223375  	0,113186  	-3,495418  	4996,304669  	11611,476561  	1,684102  	-0,047958  
230,601000  	17,291436  	34,489312  	22,275027  	1256,670793  	70,636239  	63,249831  	0,004480  	0,006330  	0,003964  	0,004090  	0,004259  	0,000000  	-0,000000  	23,325009  	20,092500  	21,086488  	22,699369  	28,148523  	26,655096  	28,122620  	29,157803  	35,014661  	33,673911  	37,203439  	57,462043  	24,541268  	23,896813  	25,349693  	62,100232  	0,079664  	0,040366  	-2903,916649  	25621,423078  	-0,018553  	-0,049995  	0,231063  	0,117081  	-3,620286  	5001,365031  	11260,829728  	1,633245  	-0,047947  
231,599000  	17,284906  	34,492825  	22,274475  	357,439972  	70,642251  	63,229720  	0,004489  	0,006322  	0,003965  	0,004083  	0,004260  	-0,000001  	-0,000000  	23,330897  	20,100184  	21,089125  	22,695568  	28,156580  	26,661325  	28,121941  	29,150881  	35,020499  	33,682639  	37,195040  	57,458081  	24,541518  	23,917345  	25,357580  	62,093694  	0,073830  	0,037410  	-2692,827181  	12636,513410  	-0,036585  	-0,050019  	0,232315  	0,117716  	-3,652779  	4983,260777  	11469,562708  	1,663519  	-0,047967  
232,601000  	17,277180  	34,504595  	22,273431  	-242,047242  	70,646301  	63,238299  	0,004501  	0,006331  	0,003964  	0,004077  	0,004207  	0,000002  	-0,000000  	23,337096  	20,103140  	21,107685  	22,693040  	28,148932  	26,647460  	28,122060  	29,150666  	35,032624  	33,681071  	37,202874  	57,463913  	24,547341  	23,922838  	25,368435  	62,097756  	0,069054  	0,034990  	-2521,501373  	-27008,077887  	-0,103680  	-0,049979  	0,190170  	0,096361  	-2,988295  	5003,067146  	11723,253668  	1,700314  	-0,047934  
233,600000  	17,261883  	34,509618  	22,274751  	-242,047242  	70,649884  	63,230746  	0,004496  	0,006319  	0,003965  	0,004102  	0,004257  	-0,000001  	-0,000000  	23,339251  	20,097814  	21,106497  	22,698325  	28,155589  	26,650097  	28,117536  	29,153787  	35,043323  	33,679915  	37,215062  	57,472607  	24,533507  	23,928353  	25,356714  	62,097875  	0,089558  	0,045380  	-3274,062524  	-27022,517216  	-0,103735  	-0,050009  	0,229982  	0,116534  	-3,619318  	4976,421895  	11611,822555  	1,684152  	-0,047959  
234,599000  	17,254218  	34,505181  	22,274996  	-242,047242  	70,652750  	63,234973  	0,004482  	0,006355  	0,003961  	0,004111  	0,004271  	0,000000  	-0,000000  	23,339702  	20,087369  	21,096402  	22,705774  	28,161013  	26,657179  	28,120414  	29,145531  	35,030726  	33,665325  	37,209294  	57,471669  	24,536532  	23,926947  	25,364384  	62,104474  	0,096193  	0,048742  	-3517,277064  	-27017,605775  	-0,103716  	-0,049999  	0,241173  	0,122204  	-3,794741  	5054,134146  	11319,818102  	1,641801  	-0,047951  
235,598000  	17,258081  	34,496861  	22,275641  	657,183579  	70,654246  	63,250173  	0,004488  	0,006324  	0,003969  	0,004092  	0,004235  	0,000001  	-0,000000  	23,342096  	20,096487  	21,103385  	22,717139  	28,156912  	26,667396  	28,127396  	29,159356  	35,028708  	33,671541  	37,211197  	57,471746  	24,548841  	23,941109  	25,359160  	62,105673  	0,081570  	0,041332  	-2980,494950  	18564,882575  	-0,027623  	-0,049986  	0,212425  	0,107637  	-3,336235  	4988,222804  	11446,423505  	1,660163  	-0,047940  
236,601000  	17,271999  	34,493164  	22,274720  	1256,670793  	70,656800  	63,229906  	0,004496  	0,006331  	0,003962  	0,004115  	0,004244  	0,000001  	-0,000000  	23,331653  	20,106697  	21,102423  	22,718619  	28,162138  	26,667597  	28,128702  	29,162592  	35,030830  	33,680254  	37,199277  	57,465393  	24,544754  	23,958298  	25,357511  	62,097394  	0,099925  	0,050633  	-3647,418462  	25620,750042  	-0,018553  	-0,049994  	0,219466  	0,111205  	-3,457435  	5002,807514  	11603,172715  	1,682898  	-0,047946  
237,601000  	17,281840  	34,495690  	22,277207  	1256,670793  	70,659760  	63,232300  	0,004497  	0,006329  	0,003964  	0,004092  	0,004201  	0,000001  	-0,000000  	23,325392  	20,103411  	21,091405  	22,702828  	28,151026  	26,659042  	28,123590  	29,155634  	35,024285  	33,674396  	37,195641  	57,455005  	24,536736  	23,971553  	25,361480  	62,098501  	0,081396  	0,041244  	-2969,838006  	25618,368771  	-0,018551  	-0,049989  	0,185514  	0,094001  	-2,922776  	4999,215102  	11638,421693  	1,688010  	-0,047942  
238,600000  	17,286807  	34,497909  	22,277391  	1256,670793  	70,665617  	63,228943  	0,004490  	0,006325  	0,003966  	0,004104  	0,004242  	-0,000000  	-0,000000  	23,335337  	20,112142  	21,093028  	22,696090  	28,155030  	26,668515  	28,118367  	29,166270  	35,036909  	33,688885  	37,201657  	57,466058  	24,536123  	23,987950  	25,370829  	62,103234  	0,090984  	0,046102  	-3319,107646  	25624,641223  	-0,018555  	-0,050002  	0,218240  	0,110584  	-3,442639  	4988,782394  	11489,990451  	1,666482  	-0,047953  
239,616000  	17,286071  	34,497724  	22,277483  	357,439972  	70,669449  	63,235439  	0,004481  	0,006342  	0,003961  	0,004094  	0,004215  	0,000001  	-0,000000  	23,332777  	20,094008  	21,090091  	22,689357  	28,151670  	26,647364  	28,111431  	29,163961  	35,036423  	33,684993  	37,209413  	57,461836  	24,529351  	23,996052  	25,358307  	62,094822  	0,082595  	0,041851  	-3013,179685  	12627,977539  	-0,036560  	-0,049981  	0,196705  	0,099672  	-3,101821  	5025,389195  	11294,715915  	1,638160  	-0,047935  
240,599000  	17,278161  	34,495875  	22,278097  	956,927186  	70,667891  	63,236931  	0,004490  	0,006326  	0,003966  	0,004088  	0,004271  	-0,000001  	-0,000000  	23,338741  	20,099099  	21,102461  	22,700453  	28,153878  	26,658984  	28,116926  	29,161241  	35,030538  	33,677308  	37,215725  	57,474456  	24,528133  	24,007613  	25,360004  	62,093889  	0,077734  	0,039388  	-2836,850155  	22587,229033  	-0,022203  	-0,050007  	0,241112  	0,122173  	-3,800520  	4992,714380  	11487,921550  	1,666182  	-0,047958  
241,600000  	17,261361  	34,500405  	22,278558  	57,696365  	70,662034  	63,251074  	0,004498  	0,006338  	0,003960  	0,004099  	0,004241  	0,000000  	-0,000000  	23,335917  	20,093784  	21,104390  	22,702370  	28,157681  	26,647445  	28,122855  	29,149482  	35,026831  	33,673669  	37,209928  	57,471117  	24,526107  	24,002733  	25,354484  	62,101303  	0,086985  	0,044076  	-3178,383441  	1926,131317  	-0,054072  	-0,049996  	0,217291  	0,110103  	-3,415824  	5017,396468  	11659,153063  	1,691017  	-0,047948  
242,602000  	17,259277  	34,504780  	22,279295  	1256,670793  	70,653124  	63,251012  	0,004496  	0,006324  	0,003969  	0,004117  	0,004265  	-0,000001  	-0,000000  	23,331902  	20,097319  	21,099830  	22,705028  	28,160657  	26,652894  	28,125426  	29,150579  	35,027758  	33,679484  	37,213973  	57,473377  	24,523831  	24,017023  	25,357246  	62,105066  	0,101039  	0,051197  	-3693,298019  	25631,889803  	-0,018561  	-0,050018  	0,236070  	0,119618  	-3,706604  	4988,287182  	11615,169513  	1,684638  	-0,047967  
243,599000  	17,262680  	34,500620  	22,279571  	1256,670793  	70,653778  	63,253063  	0,004479  	0,006325  	0,003959  	0,004103  	0,004288  	0,000001  	-0,000000  	23,328185  	20,103043  	21,086946  	22,700760  	28,158057  	26,653905  	28,123832  	29,151667  	35,016035  	33,675983  	37,203031  	57,463124  	24,527387  	24,014662  	25,354851  	62,097363  	0,089764  	0,045484  	-3279,716304  	25619,093185  	-0,018551  	-0,049990  	0,254450  	0,128932  	-3,994449  	4989,255675  	11257,532198  	1,632767  	-0,047943  
244,599000  	17,265807  	34,496676  	22,280861  	57,696365  	70,658763  	63,240195  	0,004487  	0,006334  	0,003967  	0,004079  	0,004209  	-0,000001  	-0,000000  	23,333178  	20,112572  	21,092794  	22,700313  	28,153565  	26,659030  	28,126006  	29,161516  	35,022540  	33,685497  	37,201398  	57,464104  	24,528172  	24,024829  	25,357258  	62,097337  	0,070371  	0,035658  	-2570,118076  	1926,531529  	-0,054087  	-0,050011  	0,191892  	0,097233  	-3,019654  	5008,179860  	11419,718450  	1,656290  	-0,047961  
245,602000  	17,265991  	34,495875  	22,282365  	956,927186  	70,662034  	63,249831  	0,004500  	0,006334  	0,003962  	0,004099  	0,004200  	-0,000001  	-0,000000  	23,335394  	20,109596  	21,100480  	22,697782  	28,148921  	26,660162  	28,124818  	29,165892  	35,033198  	33,689992  	37,207728  	57,467834  	24,529178  	24,031376  	25,357405  	62,099121  	0,086481  	0,043821  	-3158,306945  	22588,619655  	-0,022205  	-0,050011  	0,184719  	0,093598  	-2,904277  	5008,280317  	11695,595366  	1,696303  	-0,047961  
246,601000  	17,258817  	34,500374  	22,282672  	357,439972  	70,661037  	63,249458  	0,004497  	0,006327  	0,003962  	0,004103  	0,004226  	0,000000  	-0,000000  	23,338065  	20,100932  	21,105105  	22,696390  	28,154693  	26,655934  	28,125085  	29,167615  	35,044819  	33,689822  	37,216513  	57,473309  	24,531643  	24,034434  	25,365329  	62,106075  	0,090288  	0,045750  	-3299,571508  	12631,310688  	-0,036570  	-0,049997  	0,204953  	0,103851  	-3,222141  	4993,781916  	11645,256832  	1,689002  	-0,047949  
247,604000  	17,256334  	34,501206  	22,283132  	357,439972  	70,660040  	63,232486  	0,004480  	0,006332  	0,003964  	0,004116  	0,004249  	-0,000000  	-0,000000  	23,343742  	20,096581  	21,110370  	22,702859  	28,162684  	26,653598  	28,121713  	29,165462  	35,044835  	33,683560  	37,220916  	57,480910  	24,533099  	24,030340  	25,372336  	62,111544  	0,100280  	0,050813  	-3665,438894  	12632,161704  	-0,036573  	-0,050001  	0,223124  	0,113059  	-3,515374  	5003,793694  	11264,670963  	1,633802  	-0,047952  
248,599000  	17,259277  	34,497508  	22,283869  	956,927186  	70,658358  	63,244857  	0,004488  	0,006324  	0,003966  	0,004061  	0,004222  	-0,000001  	-0,000000  	23,340720  	20,096108  	21,105740  	22,706445  	28,160402  	26,656554  	28,118924  	29,157778  	35,029625  	33,674921  	37,215344  	57,481460  	24,529455  	24,031127  	25,367699  	62,104773  	0,055883  	0,028316  	-2041,840199  	22588,373989  	-0,022204  	-0,050011  	0,202421  	0,102568  	-3,183164  	4987,612985  	11435,881293  	1,658634  	-0,047961  
249,599000  	17,258480  	34,498063  	22,286111  	1256,670793  	70,655585  	63,243428  	0,004497  	0,006329  	0,003959  	0,004080  	0,004241  	0,000002  	-0,000000  	23,341081  	20,101845  	21,101339  	22,711361  	28,162257  	26,666614  	28,125816  	29,155928  	35,030298  	33,673911  	37,212742  	57,479309  	24,531778  	24,044615  	25,361968  	62,103425  	0,071763  	0,036363  	-2622,260763  	25613,082701  	-0,018547  	-0,049978  	0,217298  	0,110106  	-3,416487  	4999,181852  	11638,781809  	1,688063  	-0,047932  
250,598000  	17,262097  	34,499357  	22,287339  	1256,670793  	70,656831  	63,249644  	0,004497  	0,006326  	0,003965  	0,004069  	0,004224  	-0,000000  	-0,000000  	23,342966  	20,110055  	21,105430  	22,716962  	28,168788  	26,675034  	28,133506  	29,159272  	35,040370  	33,682805  	37,214844  	57,479116  	24,539517  	24,051601  	25,363633  	62,109888  	0,062791  	0,031817  	-2294,109622  	25625,727119  	-0,018556  	-0,050006  	0,203632  	0,103182  	-3,199474  	4991,670897  	11633,952021  	1,687362  	-0,047956  
251,600000  	17,266604  	34,496399  	22,288628  	1256,670793  	70,658451  	63,248277  	0,004489  	0,006315  	0,003962  	0,004089  	0,004265  	0,000000  	-0,000000  	23,331407  	20,109499  	21,098799  	22,702547  	28,163275  	26,671165  	28,131520  	29,160079  	35,035359  	33,687699  	37,209732  	57,472999  	24,538414  	24,051051  	25,366266  	62,107981  	0,079116  	0,040089  	-2889,316636  	25622,908179  	-0,018554  	-0,049999  	0,235978  	0,119572  	-3,709199  	4968,956216  	11453,315132  	1,661163  	-0,047951  
252,601000  	17,264151  	34,490544  	22,289856  	1256,670793  	70,656520  	63,252504  	0,004484  	0,006338  	0,003965  	0,004082  	0,004241  	-0,000000  	-0,000000  	23,332775  	20,104866  	21,092002  	22,690434  	28,157405  	26,662359  	28,126406  	29,164140  	35,036327  	33,681786  	37,207355  	57,468643  	24,541325  	24,051747  	25,366666  	62,107007  	0,073027  	0,037003  	-2666,418249  	25624,172350  	-0,018555  	-0,050002  	0,217511  	0,110214  	-3,416079  	5017,894510  	11363,519208  	1,648139  	-0,047953  
253,598000  	17,260227  	34,487894  	22,290685  	1256,670793  	70,656302  	63,246443  	0,004491  	0,006329  	0,003961  	0,004116  	0,004261  	0,000002  	-0,000000  	23,341678  	20,105769  	21,104934  	22,699197  	28,158875  	26,658798  	28,131662  	29,169854  	35,043417  	33,688757  	37,217152  	57,478514  	24,544825  	24,054454  	25,373252  	62,107098  	0,100584  	0,050967  	-3672,869168  	25614,193150  	-0,018548  	-0,049981  	0,233213  	0,118171  	-3,665575  	4998,821055  	11505,538978  	1,668737  	-0,047935  
254,601000  	17,259675  	34,490360  	22,293510  	1256,670793  	70,655180  	63,247002  	0,004498  	0,006321  	0,003966  	0,004088  	0,004254  	-0,000001  	-0,000000  	23,340040  	20,096621  	21,103545  	22,693593  	28,161193  	26,657166  	28,126278  	29,161637  	35,043690  	33,674865  	37,226232  	57,478347  	24,537952  	24,049019  	25,368433  	62,107416  	0,078331  	0,039691  	-2860,804931  	25631,014927  	-0,018560  	-0,050018  	0,227519  	0,115286  	-3,575270  	4979,915971  	11662,605938  	1,691518  	-0,047966  
255,601000  	17,267033  	34,494057  	22,294523  	1256,670793  	70,653218  	63,255985  	0,004495  	0,006322  	0,003960  	0,004088  	0,004240  	0,000002  	-0,000000  	23,342646  	20,095185  	21,097391  	22,708149  	28,161490  	26,656429  	28,116767  	29,155704  	35,035633  	33,679298  	37,220546  	57,470443  	24,541087  	24,046061  	25,370458  	62,108409  	0,077981  	0,039514  	-2847,409258  	25614,111640  	-0,018548  	-0,049981  	0,216052  	0,109475  	-3,390061  	4983,050665  	11585,993075  	1,680406  	-0,047935  
256,598000  	17,265991  	34,490976  	22,294953  	1256,670793  	70,654090  	63,250079  	0,004482  	0,006337  	0,003966  	0,004077  	0,004251  	-0,000000  	-0,000000  	23,334843  	20,101149  	21,110588  	22,712710  	28,161208  	26,666043  	28,128943  	29,154135  	35,034475  	33,687765  	37,222810  	57,476269  	24,554787  	24,041926  	25,372969  	62,110205  	0,069212  	0,035070  	-2526,929663  	25624,579019  	-0,018556  	-0,050004  	0,224667  	0,113841  	-3,528471  	5014,947997  	11313,448996  	1,640877  	-0,047954  
257,600000  	17,268842  	34,487463  	22,296856  	1256,670793  	70,659978  	63,252069  	0,004488  	0,006327  	0,003963  	0,004051  	0,004265  	0,000000  	-0,000000  	23,344033  	20,093629  	21,099773  	22,704434  	28,158079  	26,661718  	28,117724  	29,158316  	35,035123  	33,674386  	37,212203  	57,464388  	24,554216  	24,036230  	25,371264  	62,106178  	0,047846  	0,024244  	-1746,184709  	25621,038398  	-0,018553  	-0,049996  	0,235751  	0,119457  	-3,704491  	4992,884167  	11437,364122  	1,658849  	-0,047948  
258,599000  	17,280491  	34,488942  	22,297962  	1256,670793  	70,665274  	63,239325  	0,004499  	0,006313  	0,003964  	0,004098  	0,004239  	-0,000001  	-0,000000  	23,327433  	20,100279  	21,092202  	22,690458  	28,148165  	26,655597  	28,119082  	29,153356  	35,030629  	33,675523  	37,207826  	57,457126  	24,554198  	24,016340  	25,353944  	62,103398  	0,086402  	0,043781  	-3151,495379  	25628,147633  	-0,018558  	-0,050012  	0,215839  	0,109367  	-3,399860  	4964,500720  	11686,606594  	1,694999  	-0,047961  
259,600000  	17,297414  	34,495043  	22,299804  	1256,670793  	70,668670  	63,238019  	0,004496  	0,006330  	0,003962  	0,004110  	0,004240  	0,000001  	-0,000000  	23,344996  	20,107040  	21,103548  	22,693366  	28,157691  	26,658063  	28,137450  	29,172724  	35,043822  	33,688915  	37,212559  	57,468927  	24,553265  	24,005027  	25,363757  	62,109399  	0,095680  	0,048482  	-3487,696923  	25615,923400  	-0,018549  	-0,049985  	0,215998  	0,109448  	-3,404514  	5001,137941  	11620,133462  	1,685358  	-0,047939  
260,599000  	17,304772  	34,502069  	22,301400  	1256,670793  	70,672346  	63,240008  	0,004480  	0,006337  	0,003965  	0,004081  	0,004224  	-0,000001  	-0,000000  	23,336037  	20,103616  	21,096453  	22,683174  	28,154394  	26,654216  	28,129414  	29,157299  	35,039230  	33,688710  	37,220251  	57,479095  	24,551080  	23,967823  	25,354711  	62,109643  	0,072012  	0,036489  	-2624,910037  	25627,617446  	-0,018558  	-0,050011  	0,203902  	0,103319  	-3,214593  	5015,447454  	11270,129188  	1,634594  	-0,047961  
261,599000  	17,297843  	34,493996  	22,301339  	956,927186  	70,678515  	63,248619  	0,004490  	0,006316  	0,003965  	0,004096  	0,004243  	0,000001  	-0,000000  	23,352589  	20,106315  	21,114486  	22,704649  	28,171852  	26,665882  	28,144053  	29,174281  	35,058860  	33,703789  	37,228789  	57,483016  	24,577027  	23,948763  	25,380408  	62,127461  	0,084059  	0,042594  	-3063,838266  	22579,740409  	-0,022196  	-0,049991  	0,218862  	0,110899  	-3,449310  	4970,168779  	11473,756997  	1,664128  	-0,047944  
262,600000  	17,286255  	34,486600  	22,303979  	-242,047242  	70,685057  	63,247437  	0,004497  	0,006317  	0,003962  	0,004091  	0,004229  	-0,000000  	-0,000000  	23,343080  	20,092998  	21,098143  	22,706301  	28,153626  	26,654411  	28,130170  	29,158058  	35,036146  	33,678191  	37,216270  	57,475640  	24,560814  	23,889541  	25,370184  	62,103952  	0,080154  	0,040615  	-2922,205683  	-27020,438338  	-0,103716  	-0,050004  	0,207520  	0,105152  	-3,273954  	4972,596026  	11642,601860  	1,688617  	-0,047955  
263,599000  	17,285335  	34,485121  	22,305361  	657,183579  	70,683063  	63,249582  	0,004500  	0,006343  	0,003964  	0,004080  	0,004262  	-0,000001  	-0,000000  	23,331335  	20,095129  	21,097421  	22,708456  	28,163194  	26,660205  	28,120409  	29,160301  	35,028853  	33,673296  	37,214949  	57,476819  	24,565910  	23,855888  	25,367040  	62,110645  	0,071560  	0,036260  	-2608,810164  	18572,844068  	-0,027636  	-0,050014  	0,234006  	0,118573  	-3,689771  	5028,067586  	11694,515018  	1,696146  	-0,047964  
264,599000  	17,284293  	34,481670  	22,304992  	1256,670793  	70,678203  	63,250763  	0,004486  	0,006320  	0,003962  	0,004075  	0,004238  	0,000002  	-0,000000  	23,322150  	20,090607  	21,091443  	22,702468  	28,148037  	26,655212  	28,119544  	29,150783  	35,026425  	33,672494  	37,200147  	57,466978  	24,566733  	23,832163  	25,360429  	62,105507  	0,067319  	0,034111  	-2453,864846  	25613,508866  	-0,018548  	-0,049980  	0,215006  	0,108945  	-3,387431  	4979,792168  	11404,254656  	1,654047  	-0,047934  
265,603000  	17,276445  	34,482440  	22,306957  	956,927186  	70,675337  	63,255519  	0,004486  	0,006332  	0,003966  	0,004072  	0,004234  	-0,000001  	-0,000000  	23,328539  	20,093984  	21,090910  	22,698219  	28,156366  	26,661747  	28,124884  	29,152239  	35,039882  	33,677128  	37,209096  	57,463015  	24,569337  	23,825070  	25,363473  	62,110783  	0,064820  	0,032845  	-2363,960624  	22588,600872  	-0,022205  	-0,050013  	0,211424  	0,107130  	-3,327575  	5003,563066  	11402,729460  	1,653826  	-0,047963  
266,598000  	17,265776  	34,487186  	22,308247  	-242,047242  	70,675773  	63,261300  	0,004491  	0,006321  	0,003962  	0,004085  	0,004241  	-0,000000  	-0,000000  	23,347200  	20,109065  	21,118997  	22,702266  	28,169849  	26,672024  	28,141033  	29,171774  	35,047867  	33,701339  	37,218225  	57,479705  	24,579904  	23,829364  	25,377242  	62,121735  	0,075155  	0,038082  	-2743,325945  	-27018,797003  	-0,103708  	-0,050000  	0,217014  	0,109963  	-3,413096  	4980,349636  	11504,846991  	1,668637  	-0,047952  
267,599000  	17,256395  	34,492085  	22,308155  	657,183579  	70,677518  	63,258348  	0,004498  	0,006321  	0,003961  	0,004079  	0,004257  	-0,000001  	-0,000000  	23,345793  	20,101278  	21,106467  	22,693415  	28,164142  	26,657171  	28,132659  	29,166036  	35,041905  	33,697072  	37,215108  	57,475439  	24,571000  	23,805695  	25,375917  	62,117513  	0,070858  	0,035904  	-2588,601247  	18571,862707  	-0,027634  	-0,050012  	0,229594  	0,116337  	-3,613230  	4981,751794  	11654,789308  	1,690384  	-0,047961  
268,604000  	17,247075  	34,494920  	22,309628  	57,696365  	70,676708  	63,253126  	0,004492  	0,006329  	0,003964  	0,004080  	0,004235  	0,000001  	-0,000000  	23,330702  	20,093706  	21,101561  	22,701496  	28,161696  	26,653291  	28,128343  	29,153557  	35,040517  	33,690520  	37,219181  	57,474383  	24,564101  	23,777067  	25,369024  	62,107847  	0,071402  	0,036180  	-2610,349926  	1924,164907  	-0,054065  	-0,049990  	0,212218  	0,107533  	-3,341767  	4999,024799  	11532,088689  	1,672588  	-0,047943  
269,600000  	17,239932  	34,488757  	22,309045  	956,927186  	70,672377  	63,258721  	0,004480  	0,006331  	0,003962  	0,004104  	0,004214  	0,000001  	-0,000000  	23,334361  	20,089194  	21,110142  	22,705932  	28,168115  	26,650777  	28,123182  	29,152241  	35,033788  	33,677762  	37,223088  	57,478251  	24,570685  	23,754413  	25,364102  	62,108433  	0,090948  	0,046084  	-3325,086717  	22579,305853  	-0,022196  	-0,049990  	0,195503  	0,099063  	-3,074437  	5001,941600  	11267,001124  	1,634140  	-0,047943  
270,603000  	17,238890  	34,483457  	22,308861  	357,439972  	70,666396  	63,269848  	0,004490  	0,006329  	0,003965  	0,004064  	0,004254  	-0,000001  	-0,000000  	23,336417  	20,094739  	21,105696  	22,711182  	28,166127  	26,661522  	28,127878  	29,152754  	35,032982  	33,676955  	37,215133  	57,474007  	24,575852  	23,736899  	25,369117  	62,114676  	0,058733  	0,029760  	-2146,763489  	12633,400638  	-0,036579  	-0,050012  	0,227380  	0,115215  	-3,567478  	4998,460257  	11482,131454  	1,665342  	-0,047962  
271,599000  	17,241833  	34,493626  	22,309321  	357,439972  	70,665804  	63,258565  	0,004498  	0,006314  	0,003966  	0,004094  	0,004249  	0,000000  	-0,000000  	23,328077  	20,096189  	21,095569  	22,707253  	28,166578  	26,663875  	28,130780  	29,151137  	35,031046  	33,678777  	37,206668  	57,469306  	24,575870  	23,725250  	25,369799  	62,117680  	0,082698  	0,041904  	-3023,979884  	12629,967269  	-0,036569  	-0,049997  	0,223736  	0,113369  	-3,515385  	4964,850906  	11646,838516  	1,689231  	-0,047949  
272,600000  	17,255996  	34,501144  	22,309321  	-242,047242  	70,668358  	63,254897  	0,004494  	0,006337  	0,003962  	0,004088  	0,004219  	0,000000  	-0,000000  	23,328674  	20,100976  	21,096363  	22,699356  	28,163633  	26,664028  	28,130271  	29,160987  	35,035376  	33,683314  	37,205465  	57,466449  	24,580763  	23,715276  	25,367882  	62,117466  	0,078241  	0,039645  	-2859,905560  	-27016,579899  	-0,103699  	-0,049996  	0,199438  	0,101057  	-3,136234  	5016,264554  	11579,285037  	1,679433  	-0,047948  
273,599000  	17,259798  	34,497601  	22,310334  	956,927186  	70,672564  	63,277837  	0,004481  	0,006338  	0,003963  	0,004091  	0,004261  	-0,000000  	-0,000000  	23,330645  	20,100395  	21,096899  	22,695111  	28,158352  	26,657923  	28,127587  	29,163845  	35,041060  	33,690295  	37,206960  	57,463796  	24,586826  	23,696468  	25,365483  	62,114738  	0,080746  	0,040915  	-2950,214194  	22584,958802  	-0,022202  	-0,050005  	0,232725  	0,117923  	-3,650447  	5016,718735  	11285,367028  	1,636804  	-0,047955  
274,598000  	17,248577  	34,497231  	22,309966  	-242,047242  	70,676241  	63,259498  	0,004489  	0,006325  	0,003962  	0,004099  	0,004288  	0,000002  	-0,000000  	23,336471  	20,096341  	21,103741  	22,701500  	28,155215  	26,656768  	28,130407  	29,163137  	35,047814  	33,696729  	37,213376  	57,469256  	24,590217  	23,680797  	25,370089  	62,117603  	0,086991  	0,044079  	-3180,392463  	-27008,697000  	-0,103668  	-0,049979  	0,254369  	0,128890  	-4,001816  	4988,760463  	11462,628714  	1,662514  	-0,047934  
275,600000  	17,238737  	34,504626  	22,310887  	657,183579  	70,681194  	63,251509  	0,004500  	0,006318  	0,003964  	0,004096  	0,004231  	0,000000  	-0,000000  	23,339752  	20,097074  	21,110982  	22,709572  	28,154728  	26,664111  	28,130638  	29,164323  	35,049103  	33,694460  	37,219076  	57,480140  	24,586247  	23,663669  	25,373058  	62,118347  	0,084784  	0,042961  	-3102,815354  	18566,323488  	-0,027626  	-0,049995  	0,209041  	0,105922  	-3,294435  	4974,999928  	11689,099160  	1,695360  	-0,047947  
276,599000  	17,242906  	34,502161  	22,310519  	1256,670793  	70,686241  	63,260710  	0,004497  	0,006338  	0,003965  	0,004082  	0,004247  	0,000001  	-0,000000  	23,331676  	20,095351  	21,100432  	22,703974  	28,156647  	26,656317  	28,123646  	29,154587  	35,037903  	33,681159  	37,214247  	57,480145  	24,580032  	23,630715  	25,368839  	62,112127  	0,073422  	0,037203  	-2685,943467  	25616,761143  	-0,018550  	-0,049988  	0,222069  	0,112524  	-3,497805  	5018,104622  	11637,369590  	1,687858  	-0,047941  
277,599000  	17,256150  	34,491715  	22,312545  	956,927186  	70,685088  	63,262824  	0,004484  	0,006327  	0,003964  	0,004099  	0,004211  	0,000001  	-0,000000  	23,333912  	20,097593  	21,097362  	22,701269  	28,159971  	26,651692  	28,125072  	29,152449  	35,031884  	33,676313  	37,210944  	57,477241  	24,587323  	23,604147  	25,375322  	62,111489  	0,086532  	0,043846  	-3161,205228  	22578,207742  	-0,022195  	-0,049988  	0,193719  	0,098159  	-3,049925  	4993,478421  	11364,980855  	1,648351  	-0,047941  
278,603000  	17,270988  	34,480746  	22,311931  	357,439972  	70,679979  	63,266367  	0,004486  	0,006331  	0,003966  	0,004087  	0,004229  	-0,000001  	-0,000000  	23,341714  	20,103119  	21,106412  	22,710898  	28,166387  	26,665514  	28,127909  	29,161285  	35,030509  	33,685697  	37,212218  	57,482380  	24,594888  	23,600559  	25,379193  	62,113675  	0,077406  	0,039222  	-2823,582388  	12633,029929  	-0,036579  	-0,050011  	0,207927  	0,105358  	-3,269794  	5002,625700  	11403,054270  	1,653873  	-0,047961  
279,598000  	17,282944  	34,480006  	22,312576  	1256,670793  	70,674652  	63,269631  	0,004493  	0,006309  	0,003966  	0,004080  	0,004227  	-0,000001  	-0,000000  	23,340225  	20,100069  	21,098593  	22,707944  	28,164322  	26,666093  	28,130216  	29,160996  	35,029727  	33,690048  	37,208445  	57,474643  	24,589399  	23,604054  	25,370332  	62,116207  	0,071616  	0,036288  	-2610,440999  	25629,353826  	-0,018559  	-0,050015  	0,205724  	0,104242  	-3,231411  	4955,414282  	11544,473847  	1,674384  	-0,047964  
280,600000  	17,283434  	34,489374  	22,311655  	1256,670793  	70,670228  	63,275288  	0,004497  	0,006339  	0,003963  	0,004121  	0,004256  	-0,000001  	-0,000000  	23,332733  	20,097059  	21,092809  	22,691795  	28,157581  	26,658623  	28,129933  	29,164353  	35,038878  	33,684551  	37,214619  	57,468809  	24,583630  	23,594288  	25,369215  	62,107478  	0,104760  	0,053083  	-3820,540701  	25626,374148  	-0,018557  	-0,050009  	0,229090  	0,116081  	-3,593528  	5018,667749  	11634,629886  	1,687460  	-0,047959  
281,600000  	17,290608  	34,492609  	22,312084  	956,927186  	70,666988  	63,274946  	0,004492  	0,006325  	0,003964  	0,004054  	0,004255  	-0,000001  	-0,000000  	23,327993  	20,091889  	21,093294  	22,686768  	28,155855  	26,652691  	28,126879  	29,159678  	35,043423  	33,695608  	37,208944  	57,472088  	24,576558  	23,600680  	25,372377  	62,107763  	0,050148  	0,025410  	-1828,432022  	22587,245906  	-0,022204  	-0,050010  	0,228167  	0,115614  	-3,577648  	4990,390419  	11535,908740  	1,673142  	-0,047960  
282,599000  	17,305508  	34,487987  	22,311163  	357,439972  	70,663187  	63,272335  	0,004482  	0,006327  	0,003962  	0,004075  	0,004227  	-0,000001  	-0,000000  	23,342313  	20,103617  	21,118052  	22,696514  	28,163676  	26,656834  	28,132230  	29,160433  	35,048598  	33,698374  	37,225736  	57,483854  	24,590006  	23,619349  	25,380429  	62,118286  	0,067328  	0,034116  	-2452,053168  	12633,153591  	-0,036579  	-0,050012  	0,206158  	0,104462  	-3,232026  	4993,403432  	11301,628725  	1,639163  	-0,047962  
283,599000  	17,311118  	34,492886  	22,311348  	1256,670793  	70,659729  	63,261052  	0,004489  	0,006326  	0,003961  	0,004098  	0,004221  	0,000001  	-0,000000  	23,347631  	20,104753  	21,102583  	22,703477  	28,162435  	26,659013  	28,127341  	29,150702  	35,046734  	33,689013  	37,222643  	57,478702  	24,592137  	23,635172  	25,382807  	62,125686  	0,085838  	0,043495  	-3126,029205  	25619,443618  	-0,018552  	-0,049993  	0,201341  	0,102021  	-3,159855  	4990,737775  	11460,340920  	1,662182  	-0,047946  
284,601000  	17,310260  	34,499665  	22,312637  	1256,670793  	70,658670  	63,256638  	0,004499  	0,006330  	0,003963  	0,004117  	0,004245  	0,000001  	-0,000000  	23,328327  	20,092177  	21,099552  	22,702541  	28,165753  	26,660495  	28,122382  	29,151792  	35,039411  	33,678203  	37,213047  	57,479421  	24,582261  	23,652742  	25,373971  	62,119639  	0,101254  	0,051306  	-3689,086549  	25615,555272  	-0,018549  	-0,049985  	0,220429  	0,111693  	-3,460991  	5000,876893  	11687,948202  	1,695194  	-0,047939  
285,599000  	17,300940  	34,501945  	22,312944  	1256,670793  	70,658545  	63,259964  	0,004496  	0,006336  	0,003963  	0,004123  	0,004230  	0,000001  	-0,000000  	23,323953  	20,093332  	21,095674  	22,714921  	28,166738  	26,668091  	28,130658  	29,160634  	35,036780  	33,684271  	37,215138  	57,489140  	24,612979  	23,679431  	25,379102  	62,122503  	0,106322  	0,053874  	-3876,374597  	25617,395346  	-0,018551  	-0,049989  	0,208343  	0,105569  	-3,269705  	5014,067226  	11609,174645  	1,683768  	-0,047942  
286,600000  	17,305477  	34,494180  	22,312330  	1256,670793  	70,658670  	63,261953  	0,004480  	0,006314  	0,003963  	0,004083  	0,004259  	0,000000  	-0,000000  	23,324083  	20,098577  	21,087625  	22,688688  	28,147923  	26,660261  	28,129241  	29,163011  	35,032343  	33,681586  	37,196055  	57,465589  	24,597435  	23,673628  	25,360912  	62,113208  	0,074231  	0,037613  	-2704,420856  	25620,680088  	-0,018553  	-0,049996  	0,231667  	0,117387  	-3,634823  	4965,568256  	11269,691400  	1,634531  	-0,047948  
287,602000  	17,312099  	34,492054  	22,312606  	1256,670793  	70,658607  	63,258379  	0,004489  	0,006344  	0,003965  	0,004085  	0,004269  	0,000000  	-0,000000  	23,339862  	20,108610  	21,112989  	22,701536  	28,162775  	26,667011  	28,139202  	29,174633  	35,041845  	33,704140  	37,211195  	57,482306  	24,614139  	23,702586  	25,385214  	62,111951  	0,075254  	0,038132  	-2740,318232  	25620,783688  	-0,018553  	-0,049997  	0,239298  	0,121254  	-3,756343  	5030,619344  	11458,851029  	1,661966  	-0,047948  
288,601000  	17,315410  	34,503086  	22,313159  	1256,670793  	70,657486  	63,258316  	0,004502  	0,006325  	0,003964  	0,004114  	0,004226  	0,000001  	-0,000000  	23,339824  	20,100788  	21,110763  	22,699091  	28,160784  	26,659677  	28,135852  	29,171541  	35,059827  	33,706991  	37,215482  	57,486099  	24,611610  	23,704932  	25,372062  	62,131023  	0,098903  	0,050115  	-3603,065890  	25619,362247  	-0,018552  	-0,049993  	0,205556  	0,104157  	-3,226216  	4988,881436  	11734,000652  	1,701873  	-0,047946  
289,601000  	17,313509  	34,509248  	22,314326  	-242,047242  	70,655866  	63,255053  	0,004496  	0,006314  	0,003961  	0,004084  	0,004209  	0,000001  	-0,000000  	23,333816  	20,081438  	21,095624  	22,690556  	28,152522  	26,643637  	28,110901  	29,150770  	35,032270  	33,674769  	37,209139  	57,481484  	24,600235  	23,693751  	25,364919  	62,125609  	0,075013  	0,038010  	-2734,033323  	-27013,167406  	-0,103684  	-0,049988  	0,191392  	0,096980  	-3,004570  	4965,755022  	11621,750452  	1,685592  	-0,047941  
290,600000  	17,303147  	34,500867  	22,314326  	-242,047242  	70,653809  	63,248152  	0,004483  	0,006344  	0,003961  	0,004096  	0,004224  	-0,000000  	-0,000000  	23,340332  	20,087453  	21,101086  	22,700042  	28,160360  	26,659824  	28,117167  	29,154482  	35,043731  	33,681467  	37,209585  	57,484045  	24,601703  	23,702129  	25,379777  	62,125869  	0,084499  	0,042816  	-3080,153391  	-27018,895391  	-0,103705  	-0,050000  	0,203395  	0,103062  	-3,195087  	5029,759089  	11333,149446  	1,643734  	-0,047952  
291,600000  	17,296709  	34,492178  	22,314602  	657,183579  	70,652844  	63,256700  	0,004489  	0,006325  	0,003965  	0,004097  	0,004231  	0,000001  	-0,000000  	23,332392  	20,091833  	21,094259  	22,694278  	28,159040  	26,666694  	28,116797  	29,148891  	35,032413  	33,674143  	37,199122  	57,480988  	24,600419  	23,703144  	25,376197  	62,115552  	0,084826  	0,042982  	-3091,652772  	18564,564546  	-0,027624  	-0,049991  	0,208898  	0,105850  	-3,277327  	4988,854553  	11460,312675  	1,662178  	-0,047943  
292,599000  	17,303760  	34,495136  	22,314663  	1256,670793  	70,653778  	63,266150  	0,004497  	0,006331  	0,003962  	0,004124  	0,004218  	0,000001  	-0,000000  	23,325624  	20,081451  	21,081296  	22,686251  	28,150465  	26,653093  	28,109985  	29,136831  	35,021663  	33,672860  	37,199767  	57,466595  	24,595976  	23,676417  	25,357518  	62,111879  	0,107429  	0,054435  	-3914,543422  	25618,733587  	-0,018552  	-0,049992  	0,199290  	0,100982  	-3,122998  	5003,306971  	11636,479893  	1,687729  	-0,047945  
293,601000  	17,311455  	34,500836  	22,318471  	1256,670793  	70,653654  	63,263165  	0,004497  	0,006331  	0,003961  	0,004095  	0,004191  	0,000001  	-0,000000  	23,334644  	20,093415  	21,091659  	22,694465  	28,155648  	26,657286  	28,127686  	29,152845  	35,032844  	33,677164  	37,190703  	57,475092  	24,601932  	23,668495  	25,374823  	62,122343  	0,083507  	0,042313  	-3042,484136  	25619,281611  	-0,018552  	-0,049994  	0,177619  	0,090001  	-2,784471  	5001,911887  	11645,673436  	1,689062  	-0,047946  
294,601000  	17,310658  	34,500281  	22,319699  	1256,670793  	70,650164  	63,258316  	0,004491  	0,006330  	0,003964  	0,004085  	0,004204  	-0,000001  	-0,000000  	23,337792  	20,098296  	21,097884  	22,690474  	28,151346  	26,658656  	28,133525  	29,163270  	35,033944  	33,683317  	37,195888  	57,473082  	24,594552  	23,644703  	25,378240  	62,130671  	0,075168  	0,038088  	-2738,734156  	25626,172762  	-0,018557  	-0,050009  	0,187506  	0,095011  	-2,940014  	5001,359371  	11504,649280  	1,668608  	-0,047959  
295,598000  	17,312590  	34,497970  	22,321541  	357,439972  	70,644744  	63,248339  	0,004483  	0,006328  	0,003964  	0,004098  	0,004262  	0,000000  	-0,000000  	23,339196  	20,101724  	21,101635  	22,693332  	28,151098  	26,661391  	28,130636  	29,163427  	35,038926  	33,694647  	37,202941  	57,476149  	24,590475  	23,621907  	25,380944  	62,124609  	0,086139  	0,043647  	-3137,650618  	12629,592965  	-0,036570  	-0,049998  	0,233726  	0,118431  	-3,666969  	4996,701546  	11325,481099  	1,642622  	-0,047950  
296,603000  	17,322400  	34,499819  	22,323506  	-242,047242  	70,642687  	63,247095  	0,004492  	0,006328  	0,003962  	0,004121  	0,004219  	0,000002  	-0,000000  	23,336738  	20,090956  	21,103832  	22,691162  	28,162260  	26,654887  	28,117223  	29,161270  	35,034295  	33,692866  	37,206854  	57,477561  	24,586534  	23,597491  	25,383204  	62,123649  	0,104987  	0,053198  	-3822,444175  	-27008,863408  	-0,103663  	-0,049979  	0,199598  	0,101138  	-3,131182  	4996,250903  	11524,434464  	1,671478  	-0,047933  
297,600000  	17,323228  	34,509988  	22,323966  	-242,047242  	70,645554  	63,237087  	0,004498  	0,006315  	0,003964  	0,004106  	0,004235  	-0,000000  	-0,000000  	23,337565  	20,093982  	21,105780  	22,698128  	28,169687  	26,656292  	28,120862  	29,156311  	35,038110  	33,679445  	37,211075  	57,482771  	24,583329  	23,570366  	25,379005  	62,122418  	0,092578  	0,046910  	-3372,470797  	-27021,910058  	-0,103713  	-0,050006  	0,212381  	0,107615  	-3,337516  	4967,999749  	11649,825359  	1,689664  	-0,047957  
298,601000  	17,329359  	34,513685  	22,325501  	357,439972  	70,646364  	63,240381  	0,004492  	0,006327  	0,003962  	0,004102  	0,004232  	0,000000  	-0,000000  	23,331659  	20,095305  	21,101698  	22,702484  	28,166073  	26,656097  	28,126407  	29,155696  	35,038468  	33,678833  	37,205690  	57,484512  	24,579892  	23,552939  	25,378780  	62,118288  	0,089486  	0,045343  	-3259,371710  	12629,694586  	-0,036570  	-0,050000  	0,210233  	0,106527  	-3,302651  	4994,816910  	11524,286181  	1,671456  	-0,047951  
299,600000  	17,340028  	34,514517  	22,326699  	1256,670793  	70,643435  	63,234165  	0,004479  	0,006314  	0,003963  	0,004106  	0,004249  	-0,000000  	-0,000000  	23,331583  	20,097546  	21,096692  	22,704150  	28,162975  	26,661392  	28,132146  	29,159972  	35,040179  	33,683850  	37,206899  	57,480176  	24,584512  	23,547836  	25,382502  	62,125290  	0,092482  	0,046861  	-3366,565974  	25622,106386  	-0,018554  	-0,050000  	0,223279  	0,113137  	-3,509150  	4966,622351  	11251,318436  	1,631866  	-0,047952  
300,599000  	17,346160  	34,511251  	22,326944  	1256,670793  	70,642251  	63,226456  	0,004489  	0,006332  	0,003964  	0,004110  	0,004285  	-0,000000  	-0,000000  	23,338611  	20,105038  	21,094270  	22,709498  	28,165206  	26,670719  	28,142895  	29,164185  	35,042834  	33,688374  	37,209014  	57,481289  	24,588314  	23,542883  	25,381542  	62,125971  	0,095596  	0,048439  	-3478,017223  	25622,147188  	-0,018554  	-0,050001  	0,252347  	0,127866  	-3,969483  	5003,849582  	11458,681563  	1,661941  	-0,047952  
301,602000  	17,354315  	34,512021  	22,327589  	1256,670793  	70,644432  	63,232082  	0,004499  	0,006324  	0,003965  	0,004079  	0,004242  	-0,000000  	-0,000000  	23,344471  	20,098480  	21,098023  	22,703094  	28,165705  	26,666309  	28,140101  	29,164014  	35,036302  	33,691123  	37,202216  	57,478869  	24,584915  	23,531997  	25,380783  	62,116298  	0,070717  	0,035833  	-2571,743077  	25623,841158  	-0,018555  	-0,050004  	0,217889  	0,110406  	-3,425863  	4986,401838  	11681,155430  	1,694208  	-0,047955  
302,599000  	17,352904  	34,513069  	22,326852  	1256,670793  	70,644432  	63,242464  	0,004496  	0,006331  	0,003967  	0,004116  	0,004242  	-0,000000  	-0,000000  	23,352320  	20,096084  	21,107522  	22,696400  	28,168520  	26,661974  	28,130308  	29,165852  	35,037179  	33,693611  	37,207064  	57,478685  	24,589008  	23,527226  	25,385741  	62,119685  	0,100524  	0,050936  	-3656,269798  	25622,185830  	-0,018554  	-0,050001  	0,218135  	0,110531  	-3,424935  	5002,344844  	11608,419108  	1,683659  	-0,047952  
