06/18/2020 11:42:26
Tempo T_f_e T_f_s AR AR T_q_e T_q_s Corrente_P_f Corrente_P_q Corrente_P_RESERVA Corrente_eletromag_f Corrente_eletromag_q AR AR T_1 T_2 T_3 T_4 T_5 T_6 T_7 T_8 T_9 T_10 T_11 T_12 T_13 T_14 T_15 T_16 Velocidade_f_(m/s) Vazao_f_(L/s) q_f_(W) AR AR AR Velocidade_q_(m/s) Vazao_q_(L/s) q_q_(W) DeltaP_q_(Pa) DeltaP_f_(Pa) DeltaP_f_(Psi) AR
0,008000  	21,554696  	29,485525  	22,856846  	57,696365  	70,126163  	62,172007  	0,006494  	0,006343  	0,003964  	0,004229  	0,004225  	-0,000000  	-0,000000  	25,539829  	23,188104  	23,972719  	24,077067  	27,107798  	25,970389  	27,194742  	27,068203  	30,236221  	29,435574  	32,232333  	56,074002  	24,971019  	23,970420  	26,491610  	61,169619  	0,191947  	0,097261  	-3225,427689  	1893,242868  	-0,054029  	-0,050003  	0,204700  	0,103723  	-3,453336  	5027,396219  	54671,075686  	7,929369  	-0,047954  
2,551000  	21,565624  	29,480110  	22,857890  	657,183579  	70,126163  	62,170205  	0,006505  	0,006341  	0,003963  	0,004219  	0,004268  	-0,000000  	-0,000000  	25,540260  	23,200956  	23,987335  	24,079494  	27,109996  	25,969050  	27,192299  	27,076589  	30,247006  	29,430931  	32,238676  	56,076774  	24,969656  	23,964622  	26,493787  	61,177123  	0,183693  	0,093079  	-3080,373833  	18544,698717  	-0,027616  	-0,050001  	0,238126  	0,120660  	-4,018140  	5023,129612  	54901,761605  	7,962827  	-0,047952  
3,550000  	21,559639  	29,485279  	22,858443  	-242,047242  	70,122830  	62,165637  	0,006499  	0,006349  	0,003963  	0,004219  	0,004238  	0,000000  	-0,000000  	25,537788  	23,191770  	23,975457  	24,069870  	27,108015  	25,972230  	27,191830  	27,077407  	30,238843  	29,424654  	32,232994  	56,076225  	24,975496  	23,959451  	26,493833  	61,176154  	0,183739  	0,093102  	-3085,488522  	-27029,620542  	-0,103530  	-0,049999  	0,215030  	0,108957  	-3,628977  	5041,371818  	54767,614954  	7,943371  	-0,047950  
4,561000  	21,559700  	29,498324  	22,858382  	956,927186  	70,122767  	62,173530  	0,006492  	0,006334  	0,003962  	0,004262  	0,004248  	-0,000001  	-0,000000  	25,536974  	23,195409  	23,977023  	24,075739  	27,114327  	25,972724  	27,196670  	27,075837  	30,239114  	29,425348  	32,224074  	56,075636  	24,986425  	23,963353  	26,500176  	61,183805  	0,218844  	0,110890  	-3681,019896  	22568,512596  	-0,022197  	-0,050014  	0,222756  	0,112872  	-3,755618  	5009,232540  	54627,374580  	7,923031  	-0,047963  
5,550000  	21,567466  	29,514323  	22,856416  	956,927186  	70,124730  	62,177228  	0,006500  	0,006342  	0,003961  	0,004210  	0,004234  	0,000001  	-0,000000  	25,529870  	23,191117  	23,971802  	24,065060  	27,095336  	25,960507  	27,188002  	27,061929  	30,238908  	29,423434  	32,210632  	56,067650  	24,975271  	23,972497  	26,485390  	61,165472  	0,176413  	0,089390  	-2970,383596  	22556,582875  	-0,022186  	-0,049984  	0,211726  	0,107283  	-3,568873  	5026,308875  	54799,799417  	7,948039  	-0,047938  
6,550000  	21,571886  	29,519615  	22,855802  	-242,047242  	70,127658  	62,189036  	0,006505  	0,006342  	0,003965  	0,004278  	0,004242  	0,000001  	-0,000000  	25,520951  	23,181292  	23,962427  	24,063960  	27,095049  	25,958524  	27,177735  	27,053244  	30,224520  	29,412195  	32,214628  	56,067686  	24,970031  	23,977927  	26,479752  	61,159011  	0,231566  	0,117336  	-3899,466209  	-27023,702055  	-0,103509  	-0,049986  	0,218188  	0,110558  	-3,673700  	5027,086358  	54892,857566  	7,961536  	-0,047940  
7,554000  	21,563598  	29,523123  	22,858566  	657,183579  	70,130555  	62,196555  	0,006498  	0,006343  	0,003967  	0,004241  	0,004193  	-0,000001  	-0,000000  	25,522698  	23,177979  	23,963784  	24,068900  	27,096026  	25,957173  	27,184847  	27,064948  	30,227321  	29,418314  	32,228216  	56,073361  	24,977024  	23,998519  	26,486080  	61,167858  	0,201560  	0,102132  	-3399,224306  	18547,567887  	-0,027621  	-0,050009  	0,179385  	0,090896  	-3,018599  	5028,786351  	54738,459700  	7,939142  	-0,047959  
8,550000  	21,552179  	29,524969  	22,860285  	1256,670793  	70,129745  	62,190030  	0,006496  	0,006351  	0,003966  	0,004253  	0,004236  	-0,000001  	-0,000000  	25,528985  	23,185943  	23,968710  	24,064739  	27,099887  	25,958867  	27,182617  	27,066157  	30,234311  	29,422443  	32,231616  	56,074486  	24,982052  	24,026602  	26,483086  	61,174527  	0,211358  	0,107097  	-3570,400905  	25610,552877  	-0,018553  	-0,050013  	0,213106  	0,107982  	-3,588621  	5046,421568  	54711,330979  	7,935208  	-0,047963  
9,551000  	21,536770  	29,530999  	22,859886  	1256,670793  	70,129278  	62,192019  	0,006502  	0,006335  	0,003962  	0,004239  	0,004280  	0,000000  	-0,000000  	25,530900  	23,181393  	23,969237  	24,065506  	27,105109  	25,961971  	27,186638  	27,069832  	30,237625  	29,421534  	32,226971  	56,070934  	24,984498  	24,038432  	26,487197  	61,169717  	0,200474  	0,101581  	-3395,642521  	25602,383280  	-0,018547  	-0,049995  	0,247733  	0,125528  	-4,170435  	5010,323421  	54841,975328  	7,954156  	-0,047947  
10,550000  	21,540147  	29,532784  	22,861606  	1256,670793  	70,130897  	62,193572  	0,006498  	0,006334  	0,003960  	0,004277  	0,004186  	0,000001  	-0,000000  	25,529720  	23,181171  	23,968657  	24,066035  	27,100995  	25,961897  	27,185680  	27,069917  	30,233010  	29,421178  	32,224726  	56,072256  	24,986223  	24,046659  	26,479779  	61,167662  	0,231067  	0,117083  	-3913,059833  	25601,598057  	-0,018547  	-0,049994  	0,173229  	0,087776  	-2,916231  	5008,897210  	54755,950028  	7,941679  	-0,047946  
11,552000  	21,556722  	29,528538  	22,861514  	1256,670793  	70,135975  	62,201589  	0,006492  	0,006338  	0,003965  	0,004208  	0,004219  	-0,000001  	-0,000000  	25,531284  	23,181436  	23,969149  	24,063340  	27,104883  	25,958759  	27,183402  	27,062479  	30,234738  	29,419434  	32,225549  	56,070177  	24,989100  	24,052697  	26,482901  	61,171456  	0,174878  	0,088612  	-2953,795398  	25608,896717  	-0,018552  	-0,050010  	0,199949  	0,101316  	-3,364810  	5016,675580  	54617,150116  	7,921548  	-0,047960  
12,550000  	21,564642  	29,526753  	22,859978  	1256,670793  	70,139401  	62,177414  	0,006505  	0,006347  	0,003966  	0,004217  	0,004224  	0,000001  	-0,000000  	25,529880  	23,182487  	23,974395  	24,062085  	27,106412  	25,954738  	27,186365  	27,057912  	30,232425  	29,413224  	32,219010  	56,066492  	24,992222  	24,047160  	26,482186  	61,169558  	0,182609  	0,092529  	-3080,614962  	25598,660259  	-0,018544  	-0,049987  	0,203716  	0,103224  	-3,440109  	5036,606461  	54903,244434  	7,963042  	-0,047940  
13,551000  	21,570843  	29,526938  	22,859548  	1256,670793  	70,141270  	62,168900  	0,006504  	0,006335  	0,003964  	0,004212  	0,004203  	-0,000000  	-0,000000  	25,525281  	23,185807  	23,969516  	24,065434  	27,102468  	25,954501  	27,186671  	27,056316  	30,232624  	29,417889  	32,215892  	56,066813  	24,993345  	24,038477  	26,477300  	61,167491  	0,178175  	0,090282  	-3003,538009  	25605,446775  	-0,018549  	-0,050002  	0,187366  	0,094940  	-3,168132  	5010,100576  	54870,424472  	7,958282  	-0,047953  
14,551000  	21,569492  	29,522877  	22,858996  	657,183579  	70,143139  	62,173437  	0,006499  	0,006342  	0,003962  	0,004226  	0,004242  	-0,000002  	-0,000000  	25,520534  	23,187593  	23,961024  	24,067802  	27,099525  	25,953517  	27,181821  	27,060445  	30,231232  	29,423663  	32,219578  	56,069245  	24,994953  	24,034214  	26,480233  	61,170132  	0,189830  	0,096188  	-3198,919866  	18551,650720  	-0,027627  	-0,050022  	0,217833  	0,110378  	-3,682074  	5025,829933  	54768,709423  	7,943530  	-0,047970  
15,552000  	21,541313  	29,524077  	22,860562  	657,183579  	70,146628  	62,184623  	0,006496  	0,006341  	0,003963  	0,004210  	0,004253  	-0,000000  	-0,000000  	25,526900  	23,189573  	23,962488  	24,068333  	27,098250  	25,955437  	27,178297  	27,062964  	30,227804  	29,421104  	32,219396  	56,071422  	24,998479  	24,027880  	26,482381  	61,172260  	0,176635  	0,089502  	-2987,562718  	18545,801537  	-0,027618  	-0,050004  	0,226970  	0,115007  	-3,832807  	5025,031227  	54698,352690  	7,933325  	-0,047955  
16,550000  	21,523018  	29,524630  	22,860562  	1256,670793  	70,150428  	62,189346  	0,006504  	0,006330  	0,003963  	0,004258  	0,004250  	0,000001  	-0,000000  	25,537557  	23,190402  	23,968765  	24,070713  	27,102152  	25,962034  	27,180688  	27,064490  	30,234356  	29,422865  	32,219429  	56,069386  	25,000468  	24,026583  	26,486928  	61,173674  	0,215661  	0,109277  	-3656,262350  	25600,859455  	-0,018546  	-0,049992  	0,223860  	0,113432  	-3,779865  	4999,499496  	54875,515521  	7,959021  	-0,047944  
17,551000  	21,541528  	29,528723  	22,860562  	57,696365  	70,151394  	62,193355  	0,006503  	0,006336  	0,003964  	0,004243  	0,004246  	-0,000000  	-0,000000  	25,536038  	23,185387  	23,969514  	24,069329  	27,104639  	25,962977  	27,183812  	27,067834  	30,236395  	29,423528  	32,222130  	56,066721  	25,002800  	24,038558  	26,487516  	61,171608  	0,203618  	0,103175  	-3445,869306  	1892,948898  	-0,054026  	-0,050000  	0,220941  	0,111952  	-3,729147  	5012,267483  	54857,184923  	7,956362  	-0,047952  
18,551000  	21,549079  	29,531307  	22,860930  	1256,670793  	70,150148  	62,195219  	0,006493  	0,006343  	0,003964  	0,004210  	0,004225  	-0,000001  	-0,000000  	25,538834  	23,186562  	23,963647  	24,066491  	27,102177  	25,964297  	27,186088  	27,061247  	30,232692  	29,421880  	32,224225  	56,070289  	25,010371  	24,051972  	26,477977  	61,165547  	0,177150  	0,089763  	-2996,082075  	25608,068163  	-0,018551  	-0,050008  	0,204495  	0,103619  	-3,450218  	5028,420601  	54651,551763  	7,926537  	-0,047958  
19,554000  	21,550645  	29,525492  	22,861759  	1256,670793  	70,146784  	62,187699  	0,006505  	0,006334  	0,003963  	0,004209  	0,004225  	0,000000  	-0,000000  	25,540914  	23,197851  	23,967053  	24,069011  	27,104617  	25,965998  	27,193193  	27,063704  	30,234142  	29,425049  	32,229431  	56,068311  	25,019423  	24,064688  	26,483681  	61,163960  	0,175757  	0,089058  	-2969,774760  	25603,933084  	-0,018548  	-0,049999  	0,204311  	0,103526  	-3,448904  	5009,690965  	54900,356447  	7,962623  	-0,047950  
20,551000  	21,550031  	29,518046  	22,862066  	57,696365  	70,144665  	62,178067  	0,006505  	0,006353  	0,003964  	0,004193  	0,004208  	-0,000001  	-0,000000  	25,533853  	23,187947  	23,961256  	24,065374  	27,100272  	25,961926  	27,186307  	27,059028  	30,230471  	29,418178  	32,224274  	56,062170  	25,024915  	24,070296  	26,478385  	61,160902  	0,162742  	0,082463  	-2747,503921  	1893,290014  	-0,054038  	-0,050013  	0,191042  	0,096803  	-3,227968  	5050,145565  	54895,081810  	7,961858  	-0,047962  
21,550000  	21,539533  	29,517123  	22,861882  	956,927186  	70,142890  	62,182075  	0,006494  	0,006343  	0,003961  	0,004206  	0,004236  	-0,000000  	-0,000000  	25,539714  	23,182075  	23,967117  	24,069065  	27,099127  	25,962946  	27,182566  	27,067129  	30,233636  	29,422007  	32,221871  	56,062024  	25,025070  	24,076831  	26,482797  	61,162291  	0,173858  	0,088095  	-2938,694627  	22563,276444  	-0,022192  	-0,050001  	0,212795  	0,107825  	-3,592901  	5028,487101  	54662,489397  	7,928124  	-0,047952  
22,551000  	21,544935  	29,516077  	22,861207  	-242,047242  	70,142952  	62,186363  	0,006502  	0,006322  	0,003963  	0,004278  	0,004194  	0,000001  	-0,000000  	25,527953  	23,190139  	23,973712  	24,067644  	27,109313  	25,963357  	27,186365  	27,067295  	30,236850  	29,431214  	32,231865  	56,067048  	25,034134  	24,093143  	26,484700  	61,159263  	0,232099  	0,117606  	-3919,966915  	-27026,394729  	-0,103517  	-0,049992  	0,179758  	0,091085  	-3,033489  	4983,502723  	54837,067868  	7,953444  	-0,047944  
23,550000  	21,539134  	29,515431  	22,860746  	-242,047242  	70,146628  	62,196959  	0,006507  	0,006353  	0,003966  	0,004258  	0,004233  	0,000000  	-0,000000  	25,535216  	23,184249  	23,968884  	24,067249  	27,101432  	25,970534  	27,189197  	27,056818  	30,234309  	29,420677  	32,229796  	56,062750  	25,031581  	24,104244  	26,477091  	61,165448  	0,215727  	0,109311  	-3645,813049  	-27028,704936  	-0,103526  	-0,049997  	0,210646  	0,106736  	-3,551639  	5049,395672  	54948,710814  	7,969637  	-0,047949  
24,551000  	21,515375  	29,511985  	22,860746  	-242,047242  	70,147064  	62,202428  	0,006496  	0,006337  	0,003964  	0,004221  	0,004221  	-0,000000  	-0,000000  	25,528273  	23,184684  	23,963625  	24,068343  	27,096925  	25,962949  	27,175838  	27,065553  	30,232845  	29,419671  	32,227195  	56,068131  	25,028944  	24,122584  	26,478438  	61,163116  	0,185578  	0,094034  	-3144,273053  	-27032,887451  	-0,103542  	-0,050005  	0,201230  	0,101965  	-3,390739  	5015,351949  	54708,951391  	7,934863  	-0,047956  
25,551000  	21,479062  	29,512139  	22,862220  	1256,670793  	70,144323  	62,190713  	0,006500  	0,006341  	0,003964  	0,004236  	0,004247  	-0,000000  	-0,000000  	25,546388  	23,203596  	23,979904  	24,078471  	27,103433  	25,980338  	27,198999  	27,084188  	30,248340  	29,430934  	32,238761  	56,075167  	25,047176  	24,147369  	26,495835  	61,167820  	0,197682  	0,100167  	-3364,650247  	25607,195642  	-0,018551  	-0,050006  	0,221822  	0,112399  	-3,741929  	5024,334392  	54789,045372  	7,946479  	-0,047956  
26,552000  	21,465433  	29,512385  	22,861913  	657,183579  	70,145756  	62,197239  	0,006501  	0,006344  	0,003963  	0,004192  	0,004219  	-0,000000  	-0,000000  	25,536685  	23,191654  	23,962791  	24,066679  	27,096978  	25,963559  	27,184007  	27,068893  	30,235073  	29,412144  	32,223772  	56,061101  	25,027213  	24,156862  	26,476784  	61,152710  	0,161962  	0,082067  	-2761,435933  	18546,291177  	-0,027619  	-0,050006  	0,199518  	0,101097  	-3,363531  	5029,718765  	54816,520086  	7,950464  	-0,047956  
27,550000  	21,461566  	29,509154  	22,860347  	-242,047242  	70,146285  	62,206841  	0,006501  	0,006334  	0,003966  	0,004266  	0,004202  	-0,000001  	-0,000000  	25,539112  	23,186231  	23,979426  	24,067845  	27,098141  	25,975434  	27,196098  	27,074890  	30,244496  	29,426627  	32,235057  	56,066782  	25,042035  	24,171235  	26,499187  	61,167352  	0,222438  	0,112711  	-3792,842552  	-27035,076222  	-0,103550  	-0,050010  	0,186261  	0,094380  	-3,136463  	5008,393508  	54808,032652  	7,949233  	-0,047960  
28,554000  	21,482930  	29,503678  	22,859733  	956,927186  	70,149275  	62,195219  	0,006497  	0,006346  	0,003966  	0,004220  	0,004271  	0,000001  	-0,000000  	25,521663  	23,172736  	23,956271  	24,051340  	27,096489  	25,953788  	27,186631  	27,061305  	30,222798  	29,419687  	32,225415  	56,051489  	25,028785  	24,156866  	26,484185  	61,146279  	0,184995  	0,093738  	-3143,870321  	22559,960229  	-0,022189  	-0,049993  	0,240950  	0,122091  	-4,064842  	5035,241089  	54734,223044  	7,938528  	-0,047945  
29,553000  	21,491494  	29,490386  	22,858136  	1256,670793  	70,151923  	62,195778  	0,006503  	0,006342  	0,003963  	0,004242  	0,004270  	0,000001  	-0,000000  	25,533583  	23,182511  	23,966966  	24,064860  	27,097457  	25,957684  	27,182558  	27,065799  	30,226306  	29,418741  	32,220532  	56,063210  	25,028177  	24,158123  	26,485200  	61,164542  	0,203063  	0,102894  	-3441,527111  	25600,293223  	-0,018546  	-0,049990  	0,240379  	0,121802  	-4,056266  	5026,295433  	54851,670209  	7,955562  	-0,047943  
30,552000  	21,503833  	29,484417  	22,858074  	1256,670793  	70,155723  	62,195343  	0,006505  	0,006337  	0,003967  	0,004235  	0,004223  	-0,000001  	-0,000000  	25,530743  	23,190237  	23,966279  	24,068255  	27,093421  	25,954974  	27,178102  	27,066975  	30,229847  	29,415376  	32,222604  	56,055619  	25,026388  	24,140654  	26,474439  	61,164866  	0,197283  	0,099965  	-3335,905337  	25607,765295  	-0,018551  	-0,050007  	0,202547  	0,102632  	-3,419682  	5015,549326  	54907,558762  	7,963668  	-0,047957  
31,551000  	21,498677  	29,476387  	22,859825  	357,439972  	70,161579  	62,190589  	0,006492  	0,006343  	0,003960  	0,004221  	0,004242  	-0,000001  	-0,000000  	25,530440  	23,180147  	23,964435  	24,061702  	27,101112  	25,954976  	27,179125  	27,059859  	30,223661  	29,413706  	32,215323  	56,055651  	25,025452  	24,131157  	26,480773  	61,164009  	0,185519  	0,094004  	-3135,862141  	12605,254213  	-0,036556  	-0,050010  	0,218263  	0,110595  	-3,689936  	5028,516106  	54629,577641  	7,923350  	-0,047960  
32,555000  	21,475287  	29,471218  	22,858474  	-242,047242  	70,166937  	62,192516  	0,006497  	0,006345  	0,003964  	0,004192  	0,004221  	-0,000000  	-0,000000  	25,528107  	23,188417  	23,967452  	24,065384  	27,100106  	25,959132  	27,183682  	27,064378  	30,226073  	29,416781  	32,222187  	56,059186  	25,032030  	24,127104  	26,479567  	61,159998  	0,161914  	0,082043  	-2743,119853  	-27032,097438  	-0,103540  	-0,050004  	0,201642  	0,102173  	-3,410407  	5033,648628  	54737,774774  	7,939043  	-0,047955  
33,552000  	21,468779  	29,471587  	22,859272  	956,927186  	70,165411  	62,205163  	0,006500  	0,006332  	0,003964  	0,004230  	0,004232  	-0,000001  	-0,000000  	25,517746  	23,180872  	23,959778  	24,061810  	27,092906  	25,956519  	27,171497  	27,062619  	30,226211  	29,411416  	32,220133  	56,053050  	25,031125  	24,108229  	26,475088  	61,155321  	0,192877  	0,097732  	-3270,489593  	22569,256345  	-0,022198  	-0,050016  	0,209733  	0,106273  	-3,540954  	5005,287820  	54796,911430  	7,947620  	-0,047965  
34,551000  	21,508806  	29,474418  	22,859026  	357,439972  	70,161860  	62,194846  	0,006497  	0,006344  	0,003963  	0,004205  	0,004248  	-0,000000  	-0,000000  	25,524552  	23,182757  	23,964389  	24,063595  	27,094796  	25,954639  	27,183816  	27,068045  	30,235863  	29,414900  	32,220043  	56,062407  	25,036514  	24,099219  	26,470796  	61,156956  	0,172701  	0,087509  	-2914,756471  	12603,397701  	-0,036551  	-0,050002  	0,222980  	0,112986  	-3,767813  	5029,944440  	54722,840561  	7,936877  	-0,047953  
35,552000  	21,557705  	29,480787  	22,859763  	1256,670793  	70,157592  	62,188849  	0,006497  	0,006355  	0,003966  	0,004268  	0,004263  	0,000000  	-0,000000  	25,527598  	23,184876  	23,968061  	24,059907  	27,099672  	25,958411  	27,184270  	27,066219  	30,231645  	29,417065  	32,227075  	56,062941  	25,038474  	24,097025  	26,472430  	61,162945  	0,223593  	0,113296  	-3753,536626  	25604,483535  	-0,018549  	-0,050000  	0,234689  	0,118918  	-3,966511  	5053,649546  	54729,774555  	7,937883  	-0,047951  
36,552000  	21,579499  	29,482079  	22,860623  	57,696365  	70,154727  	62,200719  	0,006503  	0,006338  	0,003964  	0,004229  	0,004234  	-0,000002  	-0,000000  	25,525784  	23,186459  	23,960949  	24,065132  	27,102894  	25,962867  	27,185479  	27,066273  	30,231112  	29,420501  	32,229954  	56,062168  	25,038050  	24,096823  	26,487412  	61,163754  	0,192453  	0,097517  	-3222,403136  	1893,577765  	-0,054044  	-0,050019  	0,211818  	0,107330  	-3,573364  	5017,472165  	54865,347546  	7,957546  	-0,047968  
37,550000  	21,580236  	29,475802  	22,861974  	956,927186  	70,154664  	62,202925  	0,006506  	0,006339  	0,003960  	0,004238  	0,004213  	-0,000000  	-0,000000  	25,528274  	23,177310  	23,954861  	24,064198  	27,095333  	25,960129  	27,183711  	27,063794  	30,227098  	29,419598  	32,220251  	56,058769  	25,037138  	24,090065  	26,484622  	61,154871  	0,199140  	0,100906  	-3331,416371  	22563,671246  	-0,022193  	-0,050002  	0,195168  	0,098893  	-3,291536  	5019,054014  	54916,166235  	7,964917  	-0,047953  
38,551000  	21,569431  	29,478202  	22,862834  	357,439972  	70,153854  	62,207711  	0,006494  	0,006342  	0,003964  	0,004190  	0,004260  	-0,000002  	-0,000000  	25,532491  	23,182885  	23,964055  	24,069365  	27,099822  	25,967109  	27,187424  	27,072796  	30,224321  	29,423858  	32,222861  	56,065307  	25,047608  	24,102944  	26,489789  	61,155686  	0,160808  	0,081483  	-2694,656920  	12608,223489  	-0,036565  	-0,050024  	0,232439  	0,117778  	-3,917350  	5025,507338  	54651,756535  	7,926567  	-0,047972  
39,550000  	21,558196  	29,491863  	22,862558  	1256,670793  	70,149867  	62,210973  	0,006498  	0,006342  	0,003963  	0,004231  	0,004224  	0,000000  	-0,000000  	25,528473  	23,180283  	23,965123  	24,066009  	27,099607  	25,961508  	27,181231  	27,068805  	30,222886  	29,420510  	32,219907  	56,062822  	25,047956  	24,101649  	26,485539  	61,159004  	0,193644  	0,098121  	-3255,114510  	25602,890901  	-0,018547  	-0,049996  	0,203449  	0,103089  	-3,425652  	5025,774753  	54744,355712  	7,939998  	-0,047948  
40,553000  	21,545917  	29,508785  	22,861514  	57,696365  	70,147375  	62,211346  	0,006504  	0,006339  	0,003960  	0,004197  	0,004260  	0,000001  	-0,000000  	25,523639  	23,175327  	23,959984  	24,054666  	27,094041  	25,950371  	27,170770  	27,058378  	30,224057  	29,412420  	32,218594  	56,057538  	25,044308  	24,090353  	26,478690  	61,159440  	0,166265  	0,084248  	-2805,162156  	1892,646866  	-0,054019  	-0,049993  	0,232065  	0,117589  	-3,906074  	5019,509610  	54884,998569  	7,960396  	-0,047945  
41,552000  	21,529526  	29,516385  	22,861974  	1256,670793  	70,152048  	62,200719  	0,006498  	0,006339  	0,003964  	0,004208  	0,004206  	-0,000000  	-0,000000  	25,525543  	23,179961  	23,960915  	24,056446  	27,096682  	25,950172  	27,174116  	27,059628  	30,224789  	29,414431  	32,223503  	56,060784  	25,042701  	24,097137  	26,481858  	61,165729  	0,174815  	0,088580  	-2958,309875  	25607,212996  	-0,018551  	-0,050006  	0,189015  	0,095775  	-3,187594  	5019,123344  	54743,819069  	7,939920  	-0,047956  
42,552000  	21,518905  	29,520631  	22,860807  	657,183579  	70,157032  	62,201465  	0,006499  	0,006361  	0,003960  	0,004230  	0,004252  	0,000002  	-0,000000  	25,523423  	23,176654  	23,960689  	24,055573  	27,091705  	25,946523  	27,176934  	27,058463  	30,222104  	29,413360  	32,216387  	56,060779  	25,035924  	24,102747  	26,477467  	61,163965  	0,192625  	0,097604  	-3265,760451  	18537,204434  	-0,027605  	-0,049978  	0,226058  	0,114545  	-3,814331  	5066,099183  	54773,920510  	7,944286  	-0,047933  
43,550000  	21,513288  	29,515646  	22,854819  	657,183579  	70,156689  	62,203702  	0,006502  	0,006328  	0,003965  	0,004248  	0,004178  	-0,000001  	-0,000000  	25,518911  	23,178370  	23,961144  	24,051734  	27,086219  	25,946990  	27,180301  	27,056043  	30,225503  	29,413234  	32,217347  	56,061208  	25,037001  	24,110555  	26,485425  	61,156909  	0,207282  	0,105032  	-3514,546965  	18546,999802  	-0,027620  	-0,050007  	0,167213  	0,084728  	-2,820513  	4995,375792  	54828,975855  	7,952271  	-0,047957  
44,550000  	21,503833  	29,509431  	22,850398  	1256,670793  	70,150833  	62,194256  	0,006505  	0,006350  	0,003965  	0,004248  	0,004247  	0,000000  	-0,000000  	25,518868  	23,176552  	23,955381  	24,058678  	27,090050  	25,948422  	27,182837  	27,050224  	30,222124  	29,417350  	32,218342  	56,055061  	25,030475  	24,116434  	26,488268  	61,160037  	0,207253  	0,105016  	-3515,467336  	25603,368305  	-0,018548  	-0,049997  	0,221755  	0,112365  	-3,742196  	5043,044928  	54895,752614  	7,961956  	-0,047949  
45,550000  	21,516541  	29,506047  	22,849476  	1256,670793  	70,149120  	62,206872  	0,006491  	0,006343  	0,003965  	0,004229  	0,004246  	0,000000  	-0,000000  	25,515432  	23,164709  	23,947968  	24,056049  	27,087907  	25,941854  	27,168523  	27,046938  	30,210696  	29,403111  	32,203094  	56,046507  	25,020686  	24,110146  	26,466764  	61,153558  	0,192363  	0,097472  	-3256,339041  	25602,614456  	-0,018547  	-0,049995  	0,220868  	0,111915  	-3,720524  	5027,856059  	54599,426772  	7,918977  	-0,047947  
46,554000  	21,553806  	29,502847  	22,848924  	1256,670793  	70,151113  	62,200036  	0,006501  	0,006346  	0,003964  	0,004210  	0,004195  	-0,000001  	-0,000000  	25,520991  	23,168284  	23,953412  	24,056341  	27,087093  	25,948572  	27,173411  	27,053473  	30,220076  	29,405882  	32,204596  	56,048521  	25,027125  	24,133875  	26,476843  	61,155352  	0,177034  	0,089704  	-2981,664440  	25611,090716  	-0,018553  	-0,050013  	0,180903  	0,091665  	-3,050693  	5035,693855  	54823,785951  	7,951518  	-0,047963  
47,549000  	21,568172  	29,507647  	22,850029  	1256,670793  	70,149930  	62,195841  	0,006506  	0,006337  	0,003962  	0,004203  	0,004220  	-0,000001  	-0,000000  	25,518894  	23,171931  	23,949206  	24,048385  	27,081314  	25,949509  	27,173748  	27,047473  	30,224643  	29,404003  	32,209698  	56,050615  	25,019271  	24,153946  	26,475993  	61,154228  	0,171334  	0,086816  	-2882,194300  	25611,812320  	-0,018554  	-0,050015  	0,200199  	0,101442  	-3,377374  	5014,430854  	54929,398724  	7,966836  	-0,047964  
48,554000  	21,567742  	29,508385  	22,853653  	1256,670793  	70,149244  	62,212434  	0,006495  	0,006343  	0,003963  	0,004203  	0,004236  	-0,000002  	-0,000000  	25,528099  	23,181376  	23,967114  	24,061158  	27,089704  	25,955797  	27,178887  	27,052585  	30,229703  	29,408038  	32,210956  	56,058685  	25,024302  	24,189413  	26,484076  	61,160916  	0,171211  	0,086754  	-2880,544427  	25614,471527  	-0,018556  	-0,050021  	0,213365  	0,108114  	-3,591677  	5029,001415  	54676,364445  	7,930136  	-0,047970  
49,550000  	21,568234  	29,507924  	22,853960  	57,696365  	70,146223  	62,215324  	0,006498  	0,006337  	0,003962  	0,004232  	0,004207  	0,000000  	-0,000000  	25,525232  	23,180305  	23,955418  	24,067940  	27,088181  	25,951576  	27,181576  	27,053161  	30,230635  	29,417929  	32,218047  	56,068587  	25,021450  	24,205006  	26,482388  	61,152596  	0,194461  	0,098535  	-3271,317645  	1893,117842  	-0,054021  	-0,049994  	0,189877  	0,096212  	-3,193911  	5015,600262  	54755,893539  	7,941671  	-0,047946  
50,549000  	21,553008  	29,516046  	22,852854  	1256,670793  	70,142360  	62,207866  	0,006500  	0,006331  	0,003962  	0,004238  	0,004219  	0,000001  	-0,000000  	25,517021  	23,170266  	23,949500  	24,060065  	27,088265  	25,946558  	27,177853  	27,051643  	30,219610  	29,406803  	32,216640  	56,060496  	25,014571  	24,221223  	26,472607  	61,147018  	0,199479  	0,101078  	-3365,615957  	25601,156615  	-0,018546  	-0,049992  	0,199773  	0,101226  	-3,361886  	5002,581131  	54791,022478  	7,946766  	-0,047945  
51,551000  	21,572255  	29,524907  	22,848801  	1256,670793  	70,137594  	62,220917  	0,006504  	0,006348  	0,003962  	0,004269  	0,004229  	0,000001  	-0,000000  	25,531787  	23,192327  	23,973032  	24,073327  	27,108156  	25,965290  	27,183527  	27,056470  	30,230593  	29,425531  	32,227794  	56,064285  	25,021465  	24,229461  	26,478460  	61,156919  	0,224232  	0,113620  	-3778,294593  	25598,012542  	-0,018544  	-0,049985  	0,207869  	0,105329  	-3,490280  	5038,162135  	54881,891688  	7,959945  	-0,047938  
52,552000  	21,589874  	29,529092  	22,848555  	1256,670793  	70,137408  	62,203329  	0,006496  	0,006343  	0,003964  	0,004222  	0,004244  	-0,000000  	-0,000000  	25,526347  	23,187763  	23,963653  	24,077468  	27,094385  	25,958525  	27,178979  	27,067451  	30,227438  	29,410246  	32,230873  	56,054355  	25,027444  	24,226802  	26,480008  	61,150242  	0,186620  	0,094562  	-3139,221228  	25606,103825  	-0,018550  	-0,050002  	0,219498  	0,111221  	-3,693638  	5027,940953  	54700,753461  	7,933674  	-0,047954  
53,550000  	21,604547  	29,533553  	22,853008  	956,927186  	70,143170  	62,199321  	0,006502  	0,006343  	0,003964  	0,004269  	0,004221  	0,000001  	-0,000000  	25,520086  	23,179640  	23,964516  	24,049474  	27,096856  	25,956185  	27,188150  	27,055189  	30,230362  	29,413860  	32,218502  	56,062900  	25,023984  	24,212491  	26,483463  	61,154729  	0,224536  	0,113774  	-3772,170435  	22558,314443  	-0,022187  	-0,049988  	0,201663  	0,102184  	-3,397698  	5027,742868  	54844,107778  	7,954465  	-0,047941  
54,551000  	21,608047  	29,534722  	22,855526  	-242,047242  	70,142360  	62,188445  	0,006501  	0,006350  	0,003967  	0,004227  	0,004267  	0,000000  	-0,000000  	25,526131  	23,183702  	23,961402  	24,052565  	27,095077  	25,960679  	27,191534  	27,054514  	30,228587  	29,419362  	32,223665  	56,056310  	25,002611  	24,190880  	26,475165  	61,151816  	0,190175  	0,096363  	-3193,959840  	-27028,733856  	-0,103528  	-0,049997  	0,237798  	0,120494  	-4,011578  	5044,517831  	54817,480395  	7,950603  	-0,047949  
55,553000  	21,599298  	29,535276  	22,858750  	-242,047242  	70,138685  	62,187606  	0,006494  	0,006333  	0,003961  	0,004239  	0,004245  	0,000000  	-0,000000  	25,520913  	23,187104  	23,955380  	24,058272  	27,088917  	25,950522  	27,177320  	27,066402  	30,236171  	29,412461  	32,224068  	56,062220  	25,001273  	24,180826  	26,478823  	61,144448  	0,200157  	0,101421  	-3365,554399  	-27029,878378  	-0,103531  	-0,049999  	0,220187  	0,111570  	-3,713163  	5007,609658  	54656,699300  	7,927284  	-0,047951  
56,551000  	21,602000  	29,537553  	22,860838  	956,927186  	70,139370  	62,198793  	0,006501  	0,006336  	0,003963  	0,004233  	0,004228  	-0,000000  	-0,000000  	25,523267  	23,176599  	23,953884  	24,054929  	27,085178  	25,942717  	27,176871  	27,057139  	30,218690  	29,409650  	32,216180  	56,049260  	24,994088  	24,159268  	26,473251  	61,148713  	0,195254  	0,098937  	-3282,943631  	22564,600374  	-0,022194  	-0,050004  	0,206568  	0,104670  	-3,478909  	5012,481840  	54811,902131  	7,949794  	-0,047955  
57,552000  	21,575048  	29,544076  	22,861851  	1256,670793  	70,142734  	62,209078  	0,006507  	0,006344  	0,003962  	0,004218  	0,004260  	0,000001  	-0,000000  	25,519525  	23,180307  	23,956894  	24,062204  	27,090389  	25,951006  	27,179239  	27,057515  	30,222040  	29,415373  	32,218080  	56,053931  	24,992817  	24,147415  	26,469246  	61,151165  	0,183228  	0,092843  	-3093,736176  	25600,553199  	-0,018546  	-0,049991  	0,232291  	0,117703  	-3,908703  	5030,218929  	54950,137155  	7,969844  	-0,047944  
58,550000  	21,536924  	29,556568  	22,863080  	1256,670793  	70,141800  	62,216722  	0,006500  	0,006331  	0,003964  	0,004193  	0,004254  	0,000000  	-0,000000  	25,513099  	23,177860  	23,948812  	24,056302  	27,084282  	25,950445  	27,176064  	27,061722  	30,228475  	29,414131  	32,220711  	56,056298  	24,987089  	24,126355  	26,475135  	61,151373  	0,162917  	0,082551  	-2768,279500  	25604,175203  	-0,018548  	-0,049999  	0,227412  	0,115232  	-3,822485  	5003,514960  	54784,363867  	7,945800  	-0,047951  
59,553000  	21,531674  	29,559891  	22,862343  	357,439972  	70,137408  	62,202646  	0,006497  	0,006353  	0,003962  	0,004194  	0,004246  	-0,000000  	-0,000000  	25,518246  	23,184976  	23,959192  	24,058408  	27,096575  	25,956069  	27,185383  	27,058582  	30,235131  	29,412055  	32,220192  	56,056759  	24,984103  	24,122933  	26,479919  	61,152884  	0,163517  	0,082855  	-2781,439388  	12603,270958  	-0,036551  	-0,050002  	0,220712  	0,111836  	-3,714388  	5049,337661  	54721,541320  	7,936689  	-0,047953  
60,551000  	21,563721  	29,559214  	22,862834  	-242,047242  	70,134230  	62,199600  	0,006503  	0,006347  	0,003965  	0,004215  	0,004254  	0,000000  	-0,000000  	25,534609  	23,189342  	23,971449  	24,063129  	27,106311  	25,962194  	27,183987  	27,061245  	30,232994  	29,423312  	32,226480  	56,069624  	24,984455  	24,114587  	26,477784  	61,155649  	0,180500  	0,091461  	-3057,807932  	-27029,148635  	-0,103527  	-0,049997  	0,227147  	0,115097  	-3,822621  	5037,846614  	54858,801913  	7,956597  	-0,047949  
61,554000  	21,594571  	29,548137  	22,865567  	1256,670793  	70,135352  	62,195810  	0,006505  	0,006334  	0,003970  	0,004212  	0,004271  	0,000001  	-0,000000  	25,535662  	23,189788  	23,970774  	24,065917  	27,097434  	25,960564  	27,183326  	27,058584  	30,230597  	29,423523  	32,229380  	56,063458  	24,978214  	24,101453  	26,480341  	61,148161  	0,178168  	0,090279  	-3002,461519  	25599,616920  	-0,018545  	-0,049989  	0,241150  	0,122192  	-4,060784  	5008,520141  	54907,692923  	7,963688  	-0,047942  
62,549000  	21,589537  	29,530292  	22,867348  	657,183579  	70,136660  	62,193448  	0,006495  	0,006352  	0,003966  	0,004221  	0,004262  	0,000001  	-0,000000  	25,531003  	23,180017  	23,962438  	24,064820  	27,089342  	25,953399  	27,186924  	27,062058  	30,225761  	29,409128  	32,222435  	56,059735  	24,969745  	24,088840  	26,479844  	61,145595  	0,185952  	0,094223  	-3128,587334  	18541,481589  	-0,027612  	-0,049992  	0,234002  	0,118571  	-3,942243  	5047,130429  	54693,713551  	7,932652  	-0,047945  
63,550000  	21,581893  	29,521984  	22,867901  	657,183579  	70,133047  	62,200129  	0,006504  	0,006340  	0,003965  	0,004242  	0,004243  	-0,000000  	-0,000000  	25,531613  	23,185092  	23,962951  	24,066054  	27,099578  	25,959042  	27,187920  	27,065139  	30,231009  	29,421491  	32,233034  	56,065470  	24,972970  	24,080877  	26,484944  	61,155140  	0,202529  	0,102623  	-3407,207588  	18545,811690  	-0,027618  	-0,050005  	0,218982  	0,110960  	-3,684417  	5021,220922  	54877,407894  	7,959295  	-0,047956  
64,550000  	21,592146  	29,528261  	22,868945  	1256,670793  	70,125259  	62,199383  	0,006504  	0,006327  	0,003967  	0,004238  	0,004276  	-0,000000  	-0,000000  	25,534473  	23,187127  	23,971998  	24,070058  	27,102926  	25,966160  	27,189966  	27,066756  	30,233136  	29,429794  	32,240641  	56,061604  	24,969706  	24,071405  	26,490677  	61,158659  	0,199519  	0,101098  	-3354,888266  	25605,278469  	-0,018549  	-0,050002  	0,245175  	0,124232  	-4,121460  	4993,646086  	54872,740511  	7,958618  	-0,047953  
65,552000  	21,604118  	29,540661  	22,871831  	57,696365  	70,121708  	62,202615  	0,006497  	0,006349  	0,003965  	0,004254  	0,004204  	-0,000000  	-0,000000  	25,527627  	23,187318  	23,965290  	24,069048  	27,098383  	25,961271  	27,186574  	27,066357  	30,231727  	29,422274  	32,231395  	56,056522  	24,962233  	24,055365  	26,481823  	61,152557  	0,212201  	0,107524  	-3568,326327  	1892,361202  	-0,054027  	-0,050002  	0,187492  	0,095004  	-3,149098  	5040,549765  	54716,916304  	7,936018  	-0,047953  
66,550000  	21,592576  	29,543799  	22,872200  	1256,670793  	70,123764  	62,189999  	0,006497  	0,006348  	0,003965  	0,004200  	0,004245  	0,000000  	-0,000000  	25,528443  	23,188468  	23,960752  	24,064622  	27,093969  	25,959210  	27,184405  	27,064705  	30,234157  	29,424596  	32,223003  	56,062209  	24,966073  	24,047130  	26,479245  	61,150477  	0,168337  	0,085297  	-2835,953014  	25601,730279  	-0,018547  	-0,049995  	0,220074  	0,111513  	-3,703186  	5038,394177  	54737,139275  	7,938951  	-0,047947  
67,551000  	21,570935  	29,540291  	22,872384  	1256,670793  	70,124823  	62,191677  	0,006503  	0,006339  	0,003961  	0,004214  	0,004221  	-0,000001  	-0,000000  	25,534154  	23,186789  	23,965453  	24,066995  	27,097745  	25,961978  	27,185052  	27,068039  	30,233818  	29,430651  	32,228235  	56,064682  	24,968407  	24,044027  	26,485749  	61,152980  	0,179727  	0,091069  	-3034,760851  	25609,323611  	-0,018552  	-0,050011  	0,201677  	0,102191  	-3,393358  	5018,989637  	54866,632665  	7,957732  	-0,047961  
68,551000  	21,573943  	29,539122  	22,874226  	1256,670793  	70,121771  	62,195343  	0,006503  	0,006349  	0,003962  	0,004220  	0,004245  	0,000001  	-0,000000  	25,532380  	23,184197  	23,964579  	24,069298  	27,105713  	25,962251  	27,185969  	27,072195  	30,232214  	29,429451  	32,233128  	56,059356  	24,957242  	24,033647  	26,478267  	61,149982  	0,185250  	0,093868  	-3126,372378  	25600,820723  	-0,018546  	-0,049993  	0,220057  	0,111504  	-3,699470  	5040,228585  	54852,072691  	7,955621  	-0,047945  
69,553000  	21,620080  	29,546230  	22,876315  	-242,047242  	70,119310  	62,195064  	0,006495  	0,006347  	0,003964  	0,004249  	0,004254  	-0,000001  	-0,000000  	25,536701  	23,184452  	23,965887  	24,067281  	27,106548  	25,963363  	27,189870  	27,074245  	30,235222  	29,425763  	32,234564  	56,057069  	24,949139  	24,023459  	26,473105  	61,146058  	0,208356  	0,105576  	-3499,083548  	-27034,067607  	-0,103540  	-0,050007  	0,227246  	0,115147  	-3,819271  	5036,931886  	54683,496149  	7,931171  	-0,047957  
70,550000  	21,632973  	29,548753  	22,874902  	357,439972  	70,113454  	62,191956  	0,006500  	0,006337  	0,003961  	0,004253  	0,004210  	0,000001  	-0,000000  	25,535660  	23,194277  	23,962695  	24,069630  	27,111836  	25,960479  	27,185295  	27,073788  	30,232122  	29,417588  	32,242258  	56,053396  	24,945518  	24,010084  	26,478630  	61,148352  	0,211876  	0,107359  	-3553,529567  	12599,467003  	-0,036541  	-0,049988  	0,192320  	0,097450  	-3,231166  	5014,926066  	54795,781655  	7,947456  	-0,047941  
71,551000  	21,628184  	29,548106  	22,876007  	1256,670793  	70,109280  	62,192050  	0,006508  	0,006352  	0,003962  	0,004291  	0,004273  	0,000001  	-0,000000  	25,530319  	23,189599  	23,961946  	24,064846  	27,106660  	25,958827  	27,184501  	27,064220  	30,223299  	29,414749  	32,233281  	56,049396  	24,932438  	23,991831  	26,472644  	61,148185  	0,242268  	0,122759  	-4065,388732  	25600,841637  	-0,018546  	-0,049993  	0,242434  	0,122843  	-4,070926  	5046,919610  	54968,531303  	7,972511  	-0,047945  
72,551000  	21,591102  	29,544783  	22,877174  	57,696365  	70,111959  	62,200191  	0,006491  	0,006341  	0,003963  	0,004260  	0,004219  	-0,000001  	-0,000000  	25,530005  	23,187399  	23,966717  	24,065849  	27,098766  	25,960062  	27,187999  	27,065109  	30,232173  	29,426111  	32,232549  	56,056395  	24,935521  	23,982560  	26,472406  	61,149191  	0,217034  	0,109973  	-3657,485118  	1892,363770  	-0,054035  	-0,050011  	0,200034  	0,101359  	-3,356647  	5024,594733  	54600,874296  	7,919187  	-0,047961  
73,550000  	21,572531  	29,554906  	22,879170  	1256,670793  	70,112706  	62,195002  	0,006500  	0,006333  	0,003967  	0,004273  	0,004239  	0,000000  	-0,000000  	25,529412  	23,194900  	23,973493  	24,073040  	27,106268  	25,960022  	27,190602  	27,065383  	30,231987  	29,426283  	32,228230  	56,060260  	24,928137  	23,975843  	26,476291  	61,151108  	0,228218  	0,115640  	-3859,834552  	25603,063892  	-0,018548  	-0,049998  	0,215557  	0,109225  	-3,619840  	5006,952441  	54788,762928  	7,946438  	-0,047950  
74,551000  	21,578241  	29,564814  	22,880214  	1256,670793  	70,110775  	62,186612  	0,006504  	0,006336  	0,003964  	0,004244  	0,004208  	0,000000  	-0,000000  	25,537738  	23,201618  	23,983618  	24,079508  	27,121262  	25,972585  	27,197884  	27,072312  	30,239960  	29,432241  	32,250498  	56,063985  	24,933544  	23,980517  	26,491383  	61,163691  	0,204264  	0,103502  	-3456,516374  	25603,712474  	-0,018548  	-0,049999  	0,191036  	0,096799  	-3,210668  	5014,178296  	54882,039971  	7,959967  	-0,047951  
75,553000  	21,561480  	29,573029  	22,881136  	357,439972  	70,110090  	62,187295  	0,006504  	0,006341  	0,003961  	0,004254  	0,004222  	0,000000  	-0,000000  	25,540577  	23,189769  	23,972563  	24,077622  	27,117366  	25,968455  	27,194062  	27,069907  	30,233734  	29,428325  	32,235736  	56,050439  	24,926348  	23,961678  	26,476955  	61,150284  	0,212019  	0,107432  	-3598,980452  	12601,273086  	-0,036547  	-0,049997  	0,202341  	0,102528  	-3,400076  	5025,107631  	54867,190492  	7,957813  	-0,047949  
76,551000  	21,544843  	29,564783  	22,881320  	-242,047242  	70,114015  	62,180708  	0,006496  	0,006353  	0,003962  	0,004272  	0,004212  	-0,000001  	-0,000000  	25,536719  	23,198563  	23,964906  	24,070926  	27,113690  	25,970036  	27,189418  	27,082199  	30,241178  	29,424989  	32,229077  	56,048346  	24,918628  	23,947690  	26,483307  	61,140604  	0,226747  	0,114894  	-3853,009592  	-27034,091583  	-0,103538  	-0,050007  	0,194028  	0,098316  	-3,264720  	5050,759628  	54714,218966  	7,935627  	-0,047957  
77,555000  	21,529249  	29,552968  	22,883009  	1256,670793  	70,122456  	62,173033  	0,006502  	0,006327  	0,003965  	0,004223  	0,004250  	-0,000001  	-0,000000  	25,531761  	23,203011  	23,980557  	24,078090  	27,112160  	25,962278  	27,198508  	27,073891  	30,240148  	29,429856  	32,242529  	56,049470  	24,911301  	23,949712  	26,481574  	61,155913  	0,187664  	0,095091  	-3190,393808  	25609,347851  	-0,018552  	-0,050012  	0,224427  	0,113719  	-3,783875  	4994,474506  	54828,502761  	7,952202  	-0,047962  
78,551000  	21,532994  	29,547553  	22,884421  	1256,670793  	70,128312  	62,163649  	0,006501  	0,006331  	0,003961  	0,004202  	0,004253  	-0,000000  	-0,000000  	25,540555  	23,198073  	23,966885  	24,100321  	27,104053  	25,969962  	27,203753  	27,081033  	30,243963  	29,428162  	32,238975  	56,058935  	24,911045  	23,939482  	26,483087  	61,149203  	0,170049  	0,086165  	-2887,641102  	25606,155789  	-0,018550  	-0,050005  	0,226261  	0,114648  	-3,822103  	5003,083418  	54816,788408  	7,950503  	-0,047956  
79,553000  	21,539072  	29,538045  	22,885987  	1256,670793  	70,128000  	62,163991  	0,006493  	0,006340  	0,003961  	0,004255  	0,004263  	0,000001  	-0,000000  	25,537886  	23,192395  	23,969012  	24,077516  	27,103641  	25,973055  	27,190960  	27,072563  	30,242405  	29,425454  	32,231030  	56,053384  	24,902583  	23,945557  	26,475098  	61,149946  	0,212849  	0,107852  	-3607,399444  	25600,290694  	-0,018546  	-0,049992  	0,234516  	0,118831  	-3,961230  	5022,011139  	54637,012972  	7,924429  	-0,047945  
80,550000  	21,531644  	29,529861  	22,885987  	1256,670793  	70,125820  	62,178098  	0,006495  	0,006350  	0,003965  	0,004218  	0,004222  	-0,000001  	-0,000000  	25,541962  	23,195372  	23,975369  	24,080548  	27,106223  	25,968503  	27,205417  	27,083101  	30,247183  	29,437953  	32,237766  	56,053736  	24,920217  	23,951017  	26,478554  	61,155036  	0,182884  	0,092669  	-3099,252147  	25609,575461  	-0,018553  	-0,050013  	0,202110  	0,102411  	-3,406882  	5042,710306  	54687,648072  	7,931773  	-0,047962  
81,608000  	21,515835  	29,523184  	22,886049  	956,927186  	70,126630  	62,183691  	0,006500  	0,006339  	0,003964  	0,004206  	0,004260  	0,000001  	-0,000000  	25,538516  	23,191871  	23,972973  	24,073767  	27,105796  	25,951553  	27,188431  	27,065639  	30,234179  	29,427585  	32,238524  	56,050909  	24,911882  	23,949176  	26,467311  	61,149936  	0,173291  	0,087808  	-2940,033965  	22558,716529  	-0,022188  	-0,049992  	0,232049  	0,117581  	-3,909205  	5020,559460  	54793,613899  	7,947142  	-0,047945  
82,550000  	21,533516  	29,519738  	22,887523  	357,439972  	70,126817  	62,182821  	0,006502  	0,006346  	0,003965  	0,004230  	0,004259  	0,000001  	-0,000000  	25,549978  	23,198886  	23,980377  	24,089942  	27,122478  	25,968763  	27,201294  	27,073518  	30,239611  	29,439894  	32,250237  	56,047277  	24,922034  	23,956695  	26,486974  	61,161102  	0,192995  	0,097792  	-3265,700746  	12598,449022  	-0,036539  	-0,049986  	0,231472  	0,117288  	-3,899991  	5034,005181  	54829,265360  	7,952313  	-0,047940  
83,552000  	21,559117  	29,521677  	22,887338  	357,439972  	70,126848  	62,183598  	0,006499  	0,006343  	0,003964  	0,004217  	0,004278  	0,000000  	-0,000000  	25,531047  	23,189007  	23,971977  	24,076971  	27,104323  	25,959490  	27,194352  	27,074286  	30,229965  	29,431151  	32,238571  	56,039846  	24,904751  	23,952917  	26,477428  	61,151211  	0,182298  	0,092371  	-3075,536606  	12601,148249  	-0,036547  	-0,049998  	0,246353  	0,124829  	-4,150324  	5027,817857  	54763,102915  	7,942717  	-0,047950  
84,550000  	21,563291  	29,521000  	22,885496  	-242,047242  	70,128655  	62,177694  	0,006504  	0,006333  	0,003967  	0,004223  	0,004248  	0,000001  	-0,000000  	25,540103  	23,204367  	23,977138  	24,076777  	27,106818  	25,969649  	27,200264  	27,080022  	30,234693  	29,430553  	32,240174  	56,053725  	24,915481  	23,963546  	26,481804  	61,159171  	0,187467  	0,094991  	-3160,828583  	-27025,297469  	-0,103503  	-0,049989  	0,222884  	0,112937  	-3,758594  	5007,780153  	54867,946029  	7,957923  	-0,047942  
85,549000  	21,563690  	29,513862  	22,884667  	956,927186  	70,126910  	62,183380  	0,006502  	0,006332  	0,003964  	0,004237  	0,004209  	0,000000  	-0,000000  	25,542617  	23,200972  	23,973162  	24,080161  	27,105864  	25,977278  	27,206162  	27,075781  	30,238544  	29,431852  	32,232968  	56,061232  	24,919528  	23,972344  	26,481331  	61,153639  	0,198751  	0,100709  	-3347,908369  	22559,492748  	-0,022189  	-0,049994  	0,191954  	0,097264  	-3,233975  	5005,482368  	54841,940022  	7,954151  	-0,047946  
86,550000  	21,577565  	29,513923  	22,884790  	-242,047242  	70,121241  	62,185742  	0,006491  	0,006341  	0,003965  	0,004214  	0,004252  	-0,000000  	-0,000000  	25,539163  	23,192298  	23,971890  	24,076064  	27,106751  	25,969843  	27,182163  	27,069043  	30,233148  	29,425405  	32,233474  	56,044567  	24,917824  	23,971690  	26,474322  	61,147836  	0,180200  	0,091309  	-3030,145555  	-27033,002523  	-0,103533  	-0,050004  	0,225467  	0,114246  	-3,794748  	5023,718914  	54601,177923  	7,919231  	-0,047955  
87,553000  	21,596996  	29,516969  	22,884790  	657,183579  	70,116257  	62,182852  	0,006500  	0,006340  	0,003966  	0,004212  	0,004302  	0,000002  	-0,000000  	25,543421  	23,195872  	23,971594  	24,084622  	27,113794  	25,970025  	27,190051  	27,074448  	30,241052  	29,429934  	32,236118  	56,049590  	24,922155  	23,984716  	26,476593  	61,152704  	0,178483  	0,090438  	-2995,062727  	18537,114848  	-0,027606  	-0,049981  	0,265401  	0,134481  	-4,465700  	5020,885592  	54788,600523  	7,946415  	-0,047935  
88,551000  	21,611669  	29,521892  	22,885650  	1256,670793  	70,113080  	62,195903  	0,006507  	0,006334  	0,003964  	0,004231  	0,004234  	-0,000001  	-0,000000  	25,543600  	23,198343  	23,976754  	24,082690  	27,115992  	25,966517  	27,190819  	27,076351  	30,244933  	29,431025  	32,236407  	56,047068  	24,924292  	24,003920  	26,477105  	61,156505  	0,193965  	0,098284  	-3250,857307  	25609,080196  	-0,018552  	-0,050012  	0,211812  	0,107327  	-3,556707  	5009,409401  	54948,160049  	7,969557  	-0,047961  
89,552000  	21,604179  	29,528876  	22,888014  	956,927186  	70,112146  	62,185742  	0,006501  	0,006341  	0,003964  	0,004214  	0,004214  	-0,000001  	-0,000000  	25,534029  	23,193659  	23,980708  	24,080716  	27,109687  	25,964914  	27,189550  	27,068526  	30,241180  	29,425698  	32,234403  	56,041134  	24,914884  	24,018772  	26,474205  	61,158904  	0,180252  	0,091335  	-3026,557358  	22568,591985  	-0,022198  	-0,050017  	0,195678  	0,099152  	-3,289615  	5024,589073  	54817,084974  	7,950546  	-0,047966  
90,551000  	21,597856  	29,536076  	22,888505  	357,439972  	70,113890  	62,170889  	0,006498  	0,006322  	0,003965  	0,004268  	0,004239  	-0,000001  	-0,000000  	25,542178  	23,202380  	23,982716  	24,085567  	27,114911  	25,974645  	27,198183  	27,076624  	30,246848  	29,433006  	32,235251  	56,050422  	24,918764  	24,036728  	26,480899  	61,165926  	0,223851  	0,113427  	-3765,031852  	12603,842420  	-0,036555  	-0,050010  	0,215220  	0,109054  	-3,625715  	4982,115422  	54747,130722  	7,940400  	-0,047960  
91,553000  	21,596566  	29,543091  	22,887953  	1256,670793  	70,112332  	62,177197  	0,006504  	0,006355  	0,003964  	0,004209  	0,004256  	0,000001  	-0,000000  	25,549122  	23,211058  	23,986118  	24,084334  	27,115523  	25,974599  	27,203837  	27,081149  	30,251222  	29,431576  	32,237298  	56,058161  	24,922680  	24,055025  	26,486781  	61,162726  	0,175697  	0,089027  	-2958,206668  	25598,486925  	-0,018545  	-0,049989  	0,229191  	0,116133  	-3,857256  	5054,161737  	54877,139572  	7,959256  	-0,047942  
92,551000  	21,600434  	29,545491  	22,888567  	1256,670793  	70,111834  	62,163897  	0,006504  	0,006343  	0,003965  	0,004257  	0,004221  	0,000000  	-0,000000  	25,545657  	23,204591  	23,981102  	24,081313  	27,110632  	25,969808  	27,202365  	27,079904  	30,246235  	29,427909  	32,238994  	56,058530  	24,922948  	24,070696  	26,490808  	61,156633  	0,214737  	0,108809  	-3614,839717  	25602,989355  	-0,018548  	-0,049999  	0,201379  	0,102040  	-3,394647  	5027,805123  	54886,043611  	7,960548  	-0,047950  
93,553000  	21,572101  	29,548137  	22,887461  	1256,670793  	70,109747  	62,172691  	0,006495  	0,006343  	0,003963  	0,004214  	0,004212  	-0,000001  	-0,000000  	25,540660  	23,199806  	23,975030  	24,079397  	27,112137  	25,971275  	27,198178  	27,082257  	30,240217  	29,430945  	32,234959  	56,055154  	24,925620  	24,078421  	26,489395  	61,161332  	0,180019  	0,091217  	-3042,238437  	25609,878197  	-0,018553  	-0,050013  	0,193840  	0,098220  	-3,263085  	5027,584400  	54676,018451  	7,930086  	-0,047963  
94,550000  	21,539134  	29,548445  	22,888751  	657,183579  	70,108065  	62,184810  	0,006504  	0,006336  	0,003963  	0,004194  	0,004218  	-0,000001  	-0,000000  	25,542263  	23,203112  	23,979355  	24,083148  	27,114552  	25,975772  	27,198692  	27,084304  	30,240385  	29,431058  	32,229513  	56,052255  	24,923661  	24,079453  	26,484767  	61,166409  	0,163523  	0,082858  	-2774,996315  	18545,727568  	-0,027619  	-0,050008  	0,198858  	0,100763  	-3,341750  	5012,242015  	54883,289785  	7,960148  	-0,047958  
95,553000  	21,520532  	29,547153  	22,888659  	657,183579  	70,105947  	62,193293  	0,006505  	0,006343  	0,003962  	0,004232  	0,004221  	-0,000002  	-0,000000  	25,547145  	23,202987  	23,978195  	24,088139  	27,115247  	25,976919  	27,199589  	27,082927  	30,239260  	29,434453  	32,230146  	56,048748  	24,924050  	24,076850  	26,482391  	61,166976  	0,194231  	0,098418  	-3303,238288  	18550,313091  	-0,027626  	-0,050021  	0,201362  	0,102031  	-3,379296  	5029,136537  	54890,259084  	7,961159  	-0,047970  
96,550000  	21,530662  	29,543645  	22,888290  	1256,670793  	70,102583  	62,182790  	0,006494  	0,006335  	0,003960  	0,004230  	0,004238  	-0,000000  	-0,000000  	25,538207  	23,203271  	23,973218  	24,081242  	27,112421  	25,969901  	27,195968  	27,076564  	30,233504  	29,436410  	32,229197  	56,041772  	24,927450  	24,070944  	26,474214  	61,168774  	0,193373  	0,097984  	-3283,058757  	25606,030121  	-0,018550  	-0,050005  	0,214768  	0,108825  	-3,607534  	5011,383176  	54662,235197  	7,928087  	-0,047956  
97,553000  	21,572347  	29,537430  	22,888659  	57,696365  	70,098502  	62,167098  	0,006499  	0,006350  	0,003961  	0,004216  	0,004221  	-0,000000  	-0,000000  	25,545210  	23,207349  	23,981658  	24,088231  	27,113673  	25,978551  	27,202389  	27,089815  	30,245347  	29,441335  	32,233769  	56,053725  	24,934664  	24,080436  	26,484311  	61,170524  	0,181667  	0,092052  	-3065,872875  	1891,441494  	-0,054027  	-0,050003  	0,201393  	0,102047  	-3,387814  	5044,516416  	54773,051996  	7,944160  	-0,047954  
98,551000  	21,598377  	29,530476  	22,889273  	657,183579  	70,098752  	62,162499  	0,006507  	0,006338  	0,003963  	0,004239  	0,004241  	-0,000000  	-0,000000  	25,542918  	23,198233  	23,984750  	24,087222  	27,108910  	25,976592  	27,199106  	27,079913  	30,248200  	29,431951  	32,233914  	56,055486  	24,936858  	24,082687  	26,482798  	61,160327  	0,200427  	0,101558  	-3368,450627  	18544,730322  	-0,027618  	-0,050005  	0,217068  	0,109990  	-3,653740  	5018,282898  	54934,285000  	7,967544  	-0,047955  
99,553000  	21,597641  	29,519308  	22,889642  	657,183579  	70,102053  	62,166321  	0,006500  	0,006342  	0,003964  	0,004248  	0,004217  	0,000000  	-0,000000  	25,543709  	23,198739  	23,977425  	24,085189  	27,111892  	25,971502  	27,197005  	27,073954  	30,242231  	29,431068  	32,227880  	56,051866  	24,938395  	24,100338  	26,475985  	61,154086  	0,207643  	0,105214  	-3485,146359  	18541,577836  	-0,027613  	-0,049995  	0,197756  	0,100204  	-3,328455  	5025,426689  	54793,663327  	7,947149  	-0,047947  
100,551000  	21,599237  	29,511185  	22,888536  	1256,670793  	70,102552  	62,171417  	0,006496  	0,006335  	0,003961  	0,004221  	0,004241  	0,000001  	-0,000000  	25,552350  	23,202557  	23,980370  	24,082964  	27,117149  	25,976268  	27,199482  	27,081679  	30,238586  	29,431830  	32,225947  	56,043061  	24,948738  	24,117338  	26,477616  	61,161562  	0,185942  	0,094218  	-3117,075097  	25600,466674  	-0,018546  	-0,049993  	0,217402  	0,110159  	-3,657002  	5011,955500  	54706,275236  	7,934474  	-0,047945  
101,552000  	21,590120  	29,523492  	22,889672  	1256,670793  	70,103517  	62,167502  	0,006496  	0,006337  	0,003965  	0,004221  	0,004234  	0,000000  	-0,000000  	25,549713  	23,203296  	23,984736  	24,084614  	27,111668  	25,976896  	27,204087  	27,078960  	30,244248  	29,429723  	32,231229  	56,049137  	24,949850  	24,130527  	26,482458  	61,158524  	0,185404  	0,093945  	-3116,469904  	25602,310349  	-0,018547  	-0,049997  	0,211777  	0,107309  	-3,564564  	5015,554986  	54699,305937  	7,933464  	-0,047949  
102,551000  	21,596873  	29,534815  	22,890225  	657,183579  	70,104763  	62,163214  	0,006499  	0,006345  	0,003963  	0,004207  	0,004250  	-0,000001  	-0,000000  	25,535620  	23,194366  	23,977691  	24,072584  	27,099966  	25,958789  	27,195263  	27,070776  	30,245562  	29,424644  	32,227084  	56,039976  	24,938645  	24,138261  	26,465611  	61,153602  	0,174663  	0,088503  	-2937,620337  	18545,721727  	-0,027619  	-0,050008  	0,224224  	0,113616  	-3,776697  	5033,596277  	54761,005771  	7,942412  	-0,047958  
103,553000  	21,608108  	29,538784  	22,889672  	657,183579  	70,109778  	62,172660  	0,006495  	0,006336  	0,003962  	0,004205  	0,004240  	-0,000000  	-0,000000  	25,553045  	23,215664  	23,984442  	24,087414  	27,115703  	25,981517  	27,201097  	27,089294  	30,252806  	29,443921  	32,247941  	56,055107  	24,956426  	24,173783  	26,494617  	61,158620  	0,172822  	0,087570  	-2903,991521  	18544,176921  	-0,027617  	-0,050003  	0,216209  	0,109555  	-3,639673  	5013,774344  	54679,231249  	7,930552  	-0,047954  
104,551000  	21,603811  	29,539584  	22,887277  	57,696365  	70,112955  	62,170920  	0,006500  	0,006348  	0,003965  	0,004209  	0,004305  	0,000001  	-0,000000  	25,534827  	23,202730  	23,977712  	24,080905  	27,106561  	25,968616  	27,189978  	27,070649  	30,248759  	29,429286  	32,223530  	56,051869  	24,946240  	24,181317  	26,469630  	61,166158  	0,175970  	0,089165  	-2958,781352  	1891,012925  	-0,054012  	-0,049988  	0,267466  	0,135527  	-4,505332  	5038,286645  	54783,262337  	7,945640  	-0,047941  
105,553000  	21,612314  	29,542414  	22,887246  	956,927186  	70,111398  	62,176451  	0,006506  	0,006331  	0,003964  	0,004208  	0,004273  	0,000001  	-0,000000  	25,554447  	23,206913  	23,986011  	24,094513  	27,112994  	25,982236  	27,203814  	27,076392  	30,255173  	29,434327  	32,233260  	56,055123  	24,955345  	24,207510  	26,490700  	61,165143  	0,175060  	0,088704  	-2941,388966  	22554,337055  	-0,022184  	-0,049981  	0,242244  	0,122747  	-4,076834  	5002,084504  	54927,809978  	7,966605  	-0,047935  
106,551000  	21,615260  	29,548814  	22,886018  	357,439972  	70,105355  	62,173095  	0,006495  	0,006344  	0,003965  	0,004241  	0,004227  	0,000000  	-0,000000  	25,545839  	23,207380  	23,984553  	24,076877  	27,108888  	25,971198  	27,200743  	27,072728  	30,242707  	29,429789  	32,228746  	56,049829  	24,945264  	24,200524  	26,483065  	61,153615  	0,201725  	0,102216  	-3390,893431  	12600,325836  	-0,036545  	-0,049994  	0,205786  	0,104273  	-3,462088  	5031,052301  	54689,681667  	7,932068  	-0,047946  
107,553000  	21,610840  	29,551768  	22,886202  	357,439972  	70,098502  	62,182759  	0,006499  	0,006345  	0,003961  	0,004224  	0,004246  	-0,000001  	-0,000000  	25,543036  	23,207075  	23,989656  	24,091713  	27,123821  	25,984831  	27,201986  	27,081749  	30,262736  	29,435584  	32,239728  	56,053746  	24,960123  	24,217009  	26,483383  	61,164280  	0,188295  	0,095410  	-3168,071803  	12605,276706  	-0,036559  	-0,050016  	0,220953  	0,111958  	-3,709520  	5032,040603  	54764,437462  	7,942910  	-0,047965  
108,550000  	21,595492  	29,553491  	22,886325  	-242,047242  	70,096135  	62,190030  	0,006499  	0,006334  	0,003963  	0,004244  	0,004249  	0,000001  	-0,000000  	25,552059  	23,209187  	23,979006  	24,082375  	27,117714  	25,977241  	27,199579  	27,080190  	30,255307  	29,431125  	32,238333  	56,040701  	24,951762  	24,199427  	26,473762  	61,157009  	0,204519  	0,103631  	-3448,441366  	-27024,562683  	-0,103500  	-0,049987  	0,223596  	0,113298  	-3,749333  	5009,403742  	54777,387507  	7,944788  	-0,047940  
109,550000  	21,588739  	29,558844  	22,881197  	57,696365  	70,095419  	62,188911  	0,006504  	0,006344  	0,003964  	0,004223  	0,004223  	-0,000001  	-0,000000  	25,543759  	23,196016  	23,977278  	24,078958  	27,114361  	25,968224  	27,194522  	27,089131  	30,245546  	29,431005  	32,219283  	56,040514  	24,949992  	24,181064  	26,480895  	61,158653  	0,187557  	0,095036  	-3167,258824  	1892,237755  	-0,054038  	-0,050014  	0,203067  	0,102895  	-3,405257  	5029,464792  	54881,164395  	7,959840  	-0,047963  
110,551000  	21,602982  	29,562906  	22,881320  	1256,670793  	70,097163  	62,179341  	0,006496  	0,006338  	0,003966  	0,004239  	0,004218  	-0,000000  	-0,000000  	25,548393  	23,204542  	23,981476  	24,091133  	27,112984  	25,972819  	27,204674  	27,082782  	30,233451  	29,432204  	32,220703  	56,036906  	24,941272  	24,164435  	26,470566  	61,158141  	0,200428  	0,101559  	-3380,292550  	25606,080276  	-0,018550  	-0,050005  	0,199052  	0,100861  	-3,342706  	5016,725102  	54696,389706  	7,933041  	-0,047955  
111,552000  	21,632359  	29,564383  	22,882425  	1256,670793  	70,096696  	62,168807  	0,006494  	0,006356  	0,003965  	0,004240  	0,004233  	-0,000001  	-0,000000  	25,551924  	23,204847  	23,980504  	24,092063  	27,116150  	25,974856  	27,205502  	27,083102  	30,236662  	29,434820  	32,220951  	56,039731  	24,941088  	24,149496  	26,477956  	61,156562  	0,200816  	0,101755  	-3374,942708  	25608,491196  	-0,018552  	-0,050010  	0,210964  	0,106897  	-3,547256  	5056,225357  	54672,989242  	7,929647  	-0,047960  
112,549000  	21,656364  	29,559952  	22,884145  	1256,670793  	70,096758  	62,161536  	0,006505  	0,006346  	0,003964  	0,004263  	0,004232  	0,000001  	-0,000000  	25,543497  	23,198009  	23,978209  	24,084893  	27,114248  	25,975447  	27,206976  	27,077885  	30,241486  	29,431103  	32,217224  	56,044870  	24,937944  	24,119480  	26,474153  	61,152158  	0,219830  	0,111389  	-3681,249606  	25600,716139  	-0,018546  	-0,049993  	0,210094  	0,106456  	-3,535894  	5034,632686  	54903,350351  	7,963058  	-0,047946  
113,554000  	21,668888  	29,552475  	22,885128  	1256,670793  	70,096851  	62,170733  	0,006499  	0,006340  	0,003965  	0,004236  	0,004246  	0,000001  	-0,000000  	25,548350  	23,202466  	23,978128  	24,082937  	27,115373  	25,970030  	27,201740  	27,080355  	30,247419  	29,429773  	32,221538  	56,053314  	24,937139  	24,099996  	26,474409  	61,149266  	0,197939  	0,100297  	-3306,268228  	25597,335560  	-0,018544  	-0,049986  	0,221342  	0,112156  	-3,720922  	5022,531112  	54772,239970  	7,944042  	-0,047939  
114,550000  	21,671282  	29,556352  	22,885619  	1256,670793  	70,099655  	62,166072  	0,006499  	0,006349  	0,003964  	0,004267  	0,004234  	0,000001  	-0,000000  	25,551332  	23,211369  	23,984333  	24,088847  	27,122813  	25,973675  	27,198678  	27,080134  	30,248521  	29,434992  	32,227580  	56,047803  	24,948538  	24,093452  	26,477462  	61,158989  	0,222861  	0,112925  	-3723,264427  	25597,595226  	-0,018544  	-0,049986  	0,211469  	0,107153  	-3,558291  	5041,093084  	54763,964369  	7,942842  	-0,047940  
115,553000  	21,653325  	29,565675  	22,886724  	1256,670793  	70,098004  	62,168341  	0,006505  	0,006337  	0,003965  	0,004224  	0,004232  	0,000001  	-0,000000  	25,550766  	23,217178  	23,983906  	24,089361  	27,124846  	25,978971  	27,201841  	27,086586  	30,245231  	29,436413  	32,227395  	56,045409  	24,958897  	24,084567  	26,479598  	61,160072  	0,188211  	0,095368  	-3155,262333  	25596,254367  	-0,018543  	-0,049984  	0,209607  	0,106209  	-3,525224  	5015,122029  	54900,949579  	7,962710  	-0,047937  
116,551000  	21,642888  	29,573675  	22,885005  	57,696365  	70,095886  	62,165606  	0,006498  	0,006342  	0,003964  	0,004177  	0,004260  	-0,000001  	-0,000000  	25,551202  	23,217818  	23,987347  	24,088629  	27,121242  	25,980218  	27,203841  	27,089631  	30,246816  	29,437412  	32,231565  	56,044123  	24,955622  	24,074604  	26,479165  	61,160602  	0,150164  	0,076089  	-2523,293273  	1891,825098  	-0,054032  	-0,050008  	0,232554  	0,117837  	-3,911451  	5026,275625  	54746,233963  	7,940270  	-0,047959  
117,551000  	21,632359  	29,580536  	22,886601  	1256,670793  	70,097630  	62,176171  	0,006493  	0,006350  	0,003965  	0,004247  	0,004237  	-0,000001  	-0,000000  	25,546600  	23,206941  	23,984152  	24,087576  	27,116638  	25,974115  	27,198980  	27,087725  	30,245320  	29,435639  	32,229899  	56,041822  	24,957644  	24,069139  	26,470801  	61,160272  	0,207155  	0,104967  	-3488,572794  	25610,202369  	-0,018553  	-0,050014  	0,213705  	0,108286  	-3,590424  	5042,591455  	54648,416638  	7,926083  	-0,047964  
118,552000  	21,608354  	29,590197  	22,886847  	1256,670793  	70,096322  	62,167968  	0,006497  	0,006346  	0,003963  	0,004252  	0,004223  	-0,000001  	-0,000000  	25,549075  	23,206982  	23,976430  	24,090825  	27,118994  	25,971612  	27,201451  	27,084003  	30,245355  	29,428838  	32,225159  	56,041055  	24,965715  	24,069903  	26,470457  	61,155845  	0,210849  	0,106839  	-3565,827383  	25611,911844  	-0,018554  	-0,050018  	0,202758  	0,102739  	-3,409465  	5035,772382  	54735,910645  	7,938773  	-0,047967  
119,550000  	21,571242  	29,595182  	22,887584  	1256,670793  	70,095294  	62,174058  	0,006499  	0,006336  	0,003964  	0,004247  	0,004237  	-0,000001  	-0,000000  	25,559545  	23,215404  	23,990565  	24,099972  	27,123419  	25,980520  	27,208526  	27,082388  	30,249722  	29,433355  	32,229436  	56,041124  	24,968563  	24,067445  	26,479548  	61,155313  	0,206564  	0,104668  	-3511,801237  	25606,936161  	-0,018551  	-0,050007  	0,213870  	0,108369  	-3,593093  	5013,007472  	54780,423777  	7,945229  	-0,047957  
120,550000  	21,566330  	29,596228  	22,888444  	57,696365  	70,097225  	62,187544  	0,006495  	0,006349  	0,003962  	0,004264  	0,004239  	0,000001  	-0,000000  	25,556667  	23,211910  	23,998295  	24,098948  	27,119856  	25,984686  	27,204695  	27,087260  	30,250815  	29,440439  	32,228463  	56,036248  	24,971183  	24,060112  	26,473485  	61,154971  	0,220796  	0,111879  	-3756,540717  	1891,036623  	-0,054015  	-0,049991  	0,215406  	0,109148  	-3,613637  	5041,248722  	54689,180329  	7,931995  	-0,047944  
121,552000  	21,578241  	29,591705  	22,889273  	1256,670793  	70,099406  	62,189906  	0,006496  	0,006343  	0,003963  	0,004248  	0,004221  	0,000001  	-0,000000  	25,552535  	23,215809  	23,987756  	24,094033  	27,124624  	25,989487  	27,205210  	27,092110  	30,252786  	29,440841  	32,226223  	56,036991  	24,984483  	24,055916  	26,468939  	61,155605  	0,207554  	0,105169  	-3524,026715  	25597,652824  	-0,018544  	-0,049987  	0,201605  	0,102155  	-3,382022  	5027,397634  	54697,166426  	7,933153  	-0,047940  
122,550000  	21,584564  	29,577613  	22,891914  	1256,670793  	70,101461  	62,169459  	0,006502  	0,006339  	0,003961  	0,004189  	0,004231  	-0,000000  	-0,000000  	25,561399  	23,221957  	23,995556  	24,095848  	27,134390  	26,000929  	27,215460  	27,095320  	30,253637  	29,449483  	32,234415  	56,048989  	24,997750  	24,045775  	26,479681  	61,159247  	0,159572  	0,080856  	-2702,433045  	25605,948056  	-0,018550  	-0,050005  	0,209286  	0,106047  	-3,520854  	5018,674823  	54833,770337  	7,952966  	-0,047956  
123,551000  	21,590826  	29,564137  	22,890716  	1256,670793  	70,107255  	62,165420  	0,006498  	0,006346  	0,003964  	0,004222  	0,004242  	0,000000  	-0,000000  	25,555451  	23,213852  	23,989577  	24,090379  	27,125897  	25,992522  	27,215597  	27,097389  	30,252256  	29,445391  	32,232116  	56,037171  	24,986218  	24,040163  	26,473657  	61,153514  	0,186563  	0,094533  	-3151,745693  	25602,010202  	-0,018547  	-0,049997  	0,217902  	0,110413  	-3,670360  	5035,575004  	54758,795648  	7,942092  	-0,047948  
124,550000  	21,582170  	29,551768  	22,890348  	1256,670793  	70,112737  	62,177663  	0,006496  	0,006341  	0,003963  	0,004219  	0,004282  	0,000000  	-0,000000  	25,549767  	23,220520  	23,990449  	24,103273  	27,133672  	25,995910  	27,216772  	27,102623  	30,253123  	29,447913  	32,237186  	56,038262  	24,993648  	24,058402  	26,481076  	61,151264  	0,183852  	0,093159  	-3104,503067  	25602,012793  	-0,018547  	-0,049996  	0,249478  	0,126412  	-4,198644  	5024,700142  	54696,665088  	7,933081  	-0,047948  
125,550000  	21,548066  	29,549245  	22,892897  	-242,047242  	70,114575  	62,171572  	0,006503  	0,006347  	0,003964  	0,004235  	0,004224  	-0,000000  	-0,000000  	25,561722  	23,226309  	23,997269  	24,101939  	27,127996  	25,994992  	27,221988  	27,100418  	30,259940  	29,446815  	32,239134  	56,042135  	24,998903  	24,068648  	26,474908  	61,155685  	0,197005  	0,099824  	-3339,782879  	-27033,085686  	-0,103530  	-0,050004  	0,203877  	0,103306  	-3,434630  	5037,625890  	54864,083611  	7,957363  	-0,047955  
126,552000  	21,558257  	29,553983  	22,894002  	-242,047242  	70,110277  	62,156347  	0,006503  	0,006345  	0,003963  	0,004243  	0,004234  	0,000002  	-0,000000  	25,562753  	23,216622  	23,992559  	24,097487  	27,131181  	25,988169  	27,219334  	27,093695  	30,260581  	29,440842  	32,238598  	56,041105  	24,988583  	24,080334  	26,464676  	61,149201  	0,203592  	0,103162  	-3449,108967  	-27021,806121  	-0,103486  	-0,049981  	0,211914  	0,107378  	-3,574919  	5032,991411  	54850,321540  	7,955367  	-0,047935  
127,552000  	21,582016  	29,553614  	22,894923  	657,183579  	70,106227  	62,155880  	0,006492  	0,006340  	0,003962  	0,004262  	0,004223  	-0,000000  	-0,000000  	25,567134  	23,222011  	23,997836  	24,101655  	27,128017  	25,987627  	27,217853  	27,103376  	30,260429  	29,449041  	32,243615  	56,045949  	24,996486  	24,098936  	26,471159  	61,157911  	0,218604  	0,110768  	-3692,237627  	18543,225125  	-0,027616  	-0,050001  	0,202641  	0,102680  	-3,416951  	5022,763862  	54611,995518  	7,920800  	-0,047952  
128,551000  	21,578210  	29,550476  	22,895046  	57,696365  	70,105106  	62,159547  	0,006497  	0,006349  	0,003963  	0,004249  	0,004214  	0,000001  	-0,000000  	25,559833  	23,221218  	23,998584  	24,098544  	27,132170  	25,990578  	27,216731  	27,094196  	30,263689  	29,436280  	32,233549  	56,040188  	24,999101  	24,101831  	26,481620  	61,136332  	0,208674  	0,105737  	-3524,820191  	1890,747461  	-0,054017  	-0,049993  	0,195624  	0,099124  	-3,296636  	5042,047429  	54728,863674  	7,937751  	-0,047946  
129,551000  	21,569400  	29,541614  	22,894616  	-242,047242  	70,107255  	62,176699  	0,006507  	0,006347  	0,003962  	0,004207  	0,004249  	0,000001  	-0,000000  	25,571437  	23,223579  	24,002571  	24,103279  	27,135971  	25,996610  	27,222407  	27,100584  	30,264302  	29,443619  	32,243130  	56,040202  	24,996911  	24,117284  	26,476503  	61,151611  	0,174225  	0,088281  	-2942,905203  	-27026,900319  	-0,103505  	-0,049991  	0,223275  	0,113135  	-3,755518  	5036,430306  	54938,797039  	7,968199  	-0,047944  
130,550000  	21,567620  	29,538661  	22,895967  	357,439972  	70,108439  	62,178129  	0,006494  	0,006328  	0,003961  	0,004228  	0,004262  	-0,000000  	-0,000000  	25,572392  	23,221431  	23,994966  	24,113624  	27,134354  	26,001326  	27,223802  	27,094990  	30,262469  	29,451046  	32,246788  	56,046815  	25,006793  	24,137811  	26,487257  	61,153039  	0,191551  	0,097060  	-3235,088766  	12601,901047  	-0,036550  	-0,050003  	0,233961  	0,118550  	-3,935134  	4996,671126  	54668,731403  	7,929029  	-0,047954  
131,551000  	21,567804  	29,541522  	22,896981  	357,439972  	70,107473  	62,182914  	0,006500  	0,006348  	0,003963  	0,004198  	0,004209  	-0,000001  	-0,000000  	25,556849  	23,212785  	23,989595  	24,093711  	27,128308  	25,982563  	27,203910  	27,093548  	30,247490  	29,439501  	32,235044  	56,037086  	24,989664  	24,143060  	26,463471  	61,145577  	0,166702  	0,084469  	-2816,368161  	12603,177143  	-0,036554  	-0,050009  	0,191592  	0,097081  	-3,220174  	5038,812278  	54793,536227  	7,947131  	-0,047959  
132,550000  	21,579530  	29,544168  	22,896428  	-242,047242  	70,106601  	62,178626  	0,006502  	0,006347  	0,003965  	0,004206  	0,004242  	-0,000000  	-0,000000  	25,557618  	23,219988  	23,990925  	24,099694  	27,126540  	25,995941  	27,219925  	27,101504  	30,265778  	29,445014  	32,248830  	56,047164  	25,009080  	24,160275  	26,470477  	61,144432  	0,173645  	0,087987  	-2930,328019  	-27032,973780  	-0,103528  	-0,050004  	0,217875  	0,110399  	-3,663501  	5036,416865  	54840,273604  	7,953909  	-0,047955  
133,551000  	21,547698  	29,542045  	22,898147  	1256,670793  	70,102645  	62,187264  	0,006503  	0,006338  	0,003964  	0,004191  	0,004217  	0,000001  	-0,000000  	25,570174  	23,221149  	24,010286  	24,109053  	27,136398  	26,001810  	27,224203  	27,096095  	30,257016  	29,455364  	32,240785  	56,042640  	25,012033  	24,186073  	26,471851  	61,145438  	0,161441  	0,081803  	-2734,546854  	25598,789623  	-0,018545  	-0,049990  	0,197847  	0,100251  	-3,321453  	5017,194846  	54853,830903  	7,955876  	-0,047943  
134,551000  	21,514485  	29,540999  	22,897902  	657,183579  	70,098097  	62,178812  	0,006497  	0,006343  	0,003967  	0,004279  	0,004196  	-0,000000  	-0,000000  	25,566042  	23,222701  	24,007965  	24,104831  	27,133477  	25,996444  	27,217481  	27,100521  	30,259685  	29,448425  	32,232608  	56,044419  	25,005148  	24,191333  	26,466707  	61,143981  	0,232742  	0,117932  	-3958,135964  	18544,688166  	-0,027618  	-0,050006  	0,181704  	0,092071  	-3,051951  	5027,424517  	54731,786966  	7,938175  	-0,047956  
135,551000  	21,501593  	29,541368  	22,897718  	-242,047242  	70,097568  	62,162779  	0,006500  	0,006349  	0,003967  	0,004228  	0,004254  	-0,000001  	-0,000000  	25,573678  	23,222534  	24,001990  	24,107444  	27,135087  	25,997219  	27,223502  	27,106607  	30,269994  	29,450253  	32,236599  	56,046797  	25,008640  	24,198345  	26,479343  	61,147728  	0,191375  	0,096971  	-3260,009582  	-27037,660554  	-0,103545  	-0,050014  	0,227058  	0,115052  	-3,821183  	5040,317723  	54798,168305  	7,947802  	-0,047963  
136,551000  	21,508039  	29,542045  	22,899314  	956,927186  	70,096135  	62,175767  	0,006507  	0,006338  	0,003965  	0,004277  	0,004237  	-0,000000  	-0,000000  	25,560853  	23,213563  	23,991721  	24,102347  	27,128863  	25,989192  	27,214491  	27,090327  	30,257913  	29,442903  	32,227867  	56,031211  	24,995678  	24,180979  	26,463304  	61,142587  	0,230993  	0,117046  	-3932,061044  	22561,401671  	-0,022191  	-0,050000  	0,214040  	0,108456  	-3,595558  	5017,951813  	54946,818441  	7,969362  	-0,047951  
137,553000  	21,507977  	29,530692  	22,900819  	956,927186  	70,095076  	62,175425  	0,006498  	0,006348  	0,003962  	0,004234  	0,004229  	-0,000001  	-0,000000  	25,564986  	23,221725  	23,996754  	24,105274  	27,131202  	25,986088  	27,218581  	27,099968  	30,255617  	29,449803  	32,236122  	56,033080  	24,995962  	24,172871  	26,474994  	61,144577  	0,196239  	0,099436  	-3335,762150  	22568,108519  	-0,022198  	-0,050017  	0,207336  	0,105059  	-3,482633  	5039,175905  	54744,376896  	7,940001  	-0,047966  
138,550000  	21,490542  	29,522446  	22,901495  	357,439972  	70,093269  	62,168341  	0,006498  	0,006336  	0,003965  	0,004215  	0,004238  	-0,000000  	-0,000000  	25,563323  	23,227212  	23,996422  	24,104498  	27,131975  	25,991450  	27,221892  	27,101902  	30,255177  	29,451953  	32,242471  	56,039636  	25,002964  	24,175611  	26,477010  	61,152787  	0,180875  	0,091651  	-3078,124884  	12601,104167  	-0,036549  	-0,050001  	0,214553  	0,108716  	-3,606252  	5013,168062  	54739,907224  	7,939352  	-0,047952  
139,553000  	21,493673  	29,511462  	22,902047  	1256,670793  	70,090123  	62,175519  	0,006500  	0,006339  	0,003966  	0,004227  	0,004231  	-0,000000  	-0,000000  	25,559449  	23,224374  	23,999315  	24,096127  	27,128968  	25,993735  	27,219617  	27,092955  	30,252674  	29,442796  	32,238414  	56,040322  	25,002016  	24,172475  	26,469449  	61,146176  	0,190882  	0,096721  	-3242,714843  	25605,491433  	-0,018550  	-0,050005  	0,209330  	0,106069  	-3,513876  	5020,603321  	54802,136639  	7,948378  	-0,047956  
140,550000  	21,496252  	29,505862  	22,902723  	1256,670793  	70,089251  	62,169055  	0,006500  	0,006340  	0,003963  	0,004281  	0,004218  	0,000001  	-0,000000  	25,562765  	23,219638  	23,998005  	24,100061  	27,129061  	25,994321  	27,216372  	27,089880  	30,253060  	29,443991  	32,232549  	56,036868  	25,000761  	24,165975  	26,471144  	61,143592  	0,234400  	0,118772  	-3977,940230  	25598,562311  	-0,018545  	-0,049990  	0,198829  	0,100748  	-3,339965  	5021,411225  	54791,149578  	7,946784  	-0,047943  
141,551000  	21,483666  	29,497924  	22,903675  	956,927186  	70,090061  	62,162064  	0,006493  	0,006342  	0,003965  	0,004273  	0,004280  	-0,000000  	-0,000000  	25,560880  	23,218303  	23,997279  	24,103934  	27,131734  	25,994012  	27,208855  	27,099598  	30,256828  	29,444757  	32,230913  	56,037663  	25,001605  	24,163550  	26,473645  	61,144089  	0,227905  	0,115481  	-3869,957919  	22562,921261  	-0,022193  	-0,050004  	0,247627  	0,125475  	-4,163777  	5025,185450  	54642,174631  	7,925177  	-0,047955  
142,551000  	21,476913  	29,491586  	22,903798  	357,439972  	70,086323  	62,152556  	0,006499  	0,006344  	0,003960  	0,004255  	0,004218  	-0,000001  	-0,000000  	25,559010  	23,215043  	23,995277  	24,093899  	27,128873  	25,985599  	27,202771  	27,097971  	30,260750  	29,444806  	32,227502  	56,036384  	25,008522  	24,151914  	26,467488  	61,142472  	0,213285  	0,108073  	-3621,899953  	12604,094569  	-0,036557  	-0,050015  	0,199262  	0,100968  	-3,352972  	5030,143940  	54779,435224  	7,945085  	-0,047964  
143,552000  	21,469362  	29,488540  	22,904995  	1256,670793  	70,080062  	62,136460  	0,006507  	0,006353  	0,003963  	0,004207  	0,004242  	-0,000001  	-0,000000  	25,559714  	23,207866  	23,986925  	24,088483  	27,127810  	25,981362  	27,201965  	27,086548  	30,256560  	29,438994  	32,230280  	56,035746  	25,015157  	24,134612  	26,465241  	61,139036  	0,174082  	0,088209  	-2957,843961  	25607,713073  	-0,018552  	-0,050010  	0,217869  	0,110396  	-3,670596  	5050,381144  	54941,190750  	7,968546  	-0,047960  
144,550000  	21,493305  	29,488048  	22,904320  	1256,670793  	70,074829  	62,133601  	0,006497  	0,006337  	0,003964  	0,004204  	0,004292  	0,000000  	-0,000000  	25,556505  	23,213300  	23,981985  	24,091189  	27,127193  	25,987778  	27,209920  	27,083832  	30,254403  	29,436946  	32,231987  	56,037854  	25,016433  	24,125363  	26,466737  	61,142861  	0,171557  	0,086929  	-2906,049864  	25601,416573  	-0,018547  	-0,049996  	0,257254  	0,130352  	-4,332849  	5015,174380  	54721,640175  	7,936703  	-0,047948  
145,554000  	21,492998  	29,485679  	22,904657  	1256,670793  	70,070001  	62,141898  	0,006500  	0,006338  	0,003963  	0,004223  	0,004238  	-0,000000  	-0,000000  	25,559334  	23,222308  	23,989070  	24,092651  	27,122444  	25,995122  	27,219355  	27,089194  	30,259106  	29,442479  	32,229812  	56,039551  	25,018451  	24,115951  	26,467425  	61,152479  	0,187694  	0,095106  	-3178,583166  	25604,889183  	-0,018549  	-0,050004  	0,214755  	0,108818  	-3,611076  	5017,581111  	54799,721745  	7,948028  	-0,047955  
146,549000  	21,482746  	29,480079  	22,904166  	657,183579  	70,069378  	62,142892  	0,006501  	0,006337  	0,003960  	0,004236  	0,004217  	-0,000001  	-0,000000  	25,565820  	23,221452  	23,995114  	24,092765  	27,126260  	25,996093  	27,216366  	27,091040  	30,258118  	29,443200  	32,231820  	56,042871  	25,021616  	24,098029  	26,476629  	61,151842  	0,198180  	0,100419  	-3358,114731  	18547,886236  	-0,027623  	-0,050016  	0,198126  	0,100392  	-3,330786  	5014,498769  	54823,934234  	7,951539  	-0,047965  
147,554000  	21,488639  	29,478233  	22,904258  	657,183579  	70,075234  	62,145875  	0,006492  	0,006343  	0,003964  	0,004204  	0,004222  	-0,000001  	-0,000000  	25,557243  	23,218678  	23,989940  	24,091138  	27,130356  	25,987741  	27,203686  	27,085853  	30,249587  	29,440782  	32,227433  	56,043557  	25,019413  	24,077901  	26,483164  	61,143561  	0,172033  	0,087170  	-2912,225215  	18547,044504  	-0,027622  	-0,050014  	0,202215  	0,102464  	-3,400754  	5029,318350  	54620,264059  	7,922000  	-0,047963  
148,550000  	21,492875  	29,479402  	22,903583  	1256,670793  	70,081962  	62,138542  	0,006497  	0,006339  	0,003964  	0,004236  	0,004228  	-0,000001  	-0,000000  	25,551038  	23,213126  	23,989419  	24,090544  	27,122028  	25,978515  	27,200217  	27,085187  	30,246058  	29,440043  	32,221364  	56,040694  	25,018617  	24,060557  	26,481042  	61,144510  	0,198219  	0,100439  	-3354,221926  	25607,970821  	-0,018552  	-0,050010  	0,206963  	0,104870  	-3,486783  	5020,333784  	54732,853191  	7,938329  	-0,047960  
149,551000  	21,498891  	29,475402  	22,900236  	1256,670793  	70,085295  	62,139039  	0,006504  	0,006342  	0,003966  	0,004233  	0,004249  	0,000001  	-0,000000  	25,555497  	23,214369  	23,993079  	24,087240  	27,123071  	25,976566  	27,210699  	27,088679  	30,252055  	29,440606  	32,224063  	56,043092  	25,024093  	24,045262  	26,489331  	61,149415  	0,195787  	0,099206  	-3308,911260  	25599,871147  	-0,018546  	-0,049993  	0,223485  	0,113242  	-3,766479  	5025,897848  	54885,980061  	7,960538  	-0,047945  
150,550000  	21,506381  	29,472818  	22,899069  	1256,670793  	70,081807  	62,137734  	0,006500  	0,006350  	0,003964  	0,004226  	0,004243  	-0,000001  	-0,000000  	25,541266  	23,208036  	23,981673  	24,080933  	27,118328  	25,971079  	27,201130  	27,076422  	30,241763  	29,424627  	32,219514  	56,036900  	25,016358  	24,022338  	26,479948  	61,140707  	0,189694  	0,096119  	-3201,888529  	25607,680589  	-0,018551  	-0,050010  	0,218863  	0,110899  	-3,687563  	5043,212593  	54793,140806  	7,947073  	-0,047960  
151,551000  	21,509973  	29,472079  	22,896581  	1256,670793  	70,076293  	62,146155  	0,006492  	0,006343  	0,003966  	0,004189  	0,004246  	-0,000001  	-0,000000  	25,550255  	23,205392  	23,981240  	24,084895  	27,113854  	25,970718  	27,195761  	27,065050  	30,238908  	29,424343  	32,214708  	56,023196  	25,021594  	24,006589  	26,477667  	61,137687  	0,160122  	0,081135  	-2701,273176  	25609,664433  	-0,018553  	-0,050014  	0,221347  	0,112158  	-3,722878  	5027,505873  	54610,957538  	7,920650  	-0,047963  
152,552000  	21,522681  	29,470726  	22,894493  	1256,670793  	70,072493  	62,147087  	0,006500  	0,006344  	0,003967  	0,004250  	0,004231  	-0,000000  	-0,000000  	25,543595  	23,207662  	23,983963  	24,084590  	27,115317  	25,979287  	27,202774  	27,072923  	30,240551  	29,434293  	32,221701  	56,041861  	25,036753  	23,992249  	26,480497  	61,140515  	0,209531  	0,106171  	-3528,563760  	25605,903651  	-0,018550  	-0,050005  	0,208966  	0,105885  	-3,512543  	5029,513606  	54793,924588  	7,947187  	-0,047956  
153,550000  	21,518598  	29,474848  	22,891146  	-242,047242  	70,072431  	62,137547  	0,006504  	0,006337  	0,003967  	0,004266  	0,004199  	0,000001  	-0,000000  	25,537797  	23,203654  	23,976162  	24,075598  	27,108506  	25,970809  	27,195521  	27,075421  	30,236955  	29,437392  	32,218626  	56,035174  	25,040383  	23,979509  	26,469887  	61,142161  	0,222534  	0,112760  	-3751,404528  	-27025,568520  	-0,103502  	-0,049989  	0,183868  	0,093167  	-3,094367  	5015,656151  	54882,054093  	7,959969  	-0,047942  
154,549000  	21,510433  	29,477433  	22,890041  	-242,047242  	70,073864  	62,133508  	0,006494  	0,006348  	0,003964  	0,004275  	0,004261  	0,000001  	-0,000000  	25,534622  	23,209456  	23,971477  	24,072557  	27,103005  	25,971195  	27,193144  	27,068520  	30,226053  	29,417735  	32,214366  	56,035093  	25,029913  	23,967052  	26,480935  	61,141507  	0,229567  	0,116323  	-3875,195856  	-27027,823675  	-0,103511  	-0,049994  	0,232814  	0,117969  	-3,920785  	5040,014229  	54671,153358  	7,929380  	-0,047946  
155,553000  	21,500764  	29,479094  	22,887922  	657,183579  	70,077103  	62,157993  	0,006493  	0,006334  	0,003963  	0,004189  	0,004239  	-0,000002  	-0,000000  	25,539344  	23,197913  	23,965639  	24,071170  	27,103602  	25,965443  	27,183973  	27,067680  	30,220295  	29,413792  	32,203062  	56,029970  	25,032823  	23,954533  	26,479944  	61,142874  	0,159632  	0,080887  	-2698,488532  	18551,904779  	-0,027628  	-0,050026  	0,215553  	0,109223  	-3,620401  	5009,580603  	54636,610490  	7,924370  	-0,047974  
156,551000  	21,489591  	29,484140  	22,885281  	1256,670793  	70,082959  	62,169801  	0,006507  	0,006347  	0,003965  	0,004233  	0,004257  	-0,000000  	-0,000000  	25,541476  	23,192065  	23,976569  	24,071683  	27,105882  	25,965582  	27,193394  	27,086314  	30,227195  	29,423784  	32,214498  	56,035582  	25,020644  	23,949214  	26,481049  	61,135552  	0,195211  	0,098915  	-3306,639998  	25604,509777  	-0,018549  	-0,050002  	0,229639  	0,116360  	-3,854085  	5036,786859  	54952,227239  	7,970147  	-0,047953  
157,552000  	21,495331  	29,486509  	22,882149  	1256,670793  	70,089469  	62,153022  	0,006499  	0,006342  	0,003964  	0,004189  	0,004245  	0,000001  	-0,000000  	25,529827  	23,195871  	23,968865  	24,073214  	27,098430  	25,967535  	27,192352  	27,068964  	30,231242  	29,421633  	32,209096  	56,028706  	25,018204  	23,939384  	26,473315  	61,139460  	0,159750  	0,080946  	-2704,832478  	25597,171652  	-0,018544  	-0,049985  	0,220484  	0,111721  	-3,711313  	5026,335757  	54771,103134  	7,943877  	-0,047939  
158,549000  	21,487841  	29,483863  	22,879754  	657,183579  	70,094141  	62,145005  	0,006494  	0,006338  	0,003963  	0,004172  	0,004242  	-0,000000  	-0,000000  	25,537212  	23,188412  	23,976960  	24,071114  	27,101198  	25,964077  	27,185583  	27,065986  	30,228934  	29,417118  	32,206469  	56,028070  	25,038144  	23,923880  	26,475759  	61,144210  	0,146239  	0,074100  	-2477,578740  	18545,361775  	-0,027618  	-0,050005  	0,218104  	0,110515  	-3,677129  	5018,353643  	54670,235416  	7,929247  	-0,047956  
159,553000  	21,467674  	29,478233  	22,876806  	657,183579  	70,092117  	62,126361  	0,006499  	0,006350  	0,003962  	0,004197  	0,004225  	-0,000001  	-0,000000  	25,533390  	23,202879  	23,979086  	24,075576  	27,106486  	25,958532  	27,187318  	27,072305  	30,229349  	29,422513  	32,209454  	56,044322  	25,042939  	23,919344  	26,483846  	61,140008  	0,166039  	0,084133  	-2818,137362  	18546,156986  	-0,027619  	-0,050007  	0,204121  	0,103430  	-3,448572  	5043,969560  	54769,803893  	7,943688  	-0,047958  
160,551000  	21,461842  	29,475156  	22,873674  	57,696365  	70,087382  	62,123378  	0,006505  	0,006341  	0,003963  	0,004264  	0,004231  	0,000000  	-0,000000  	25,531835  	23,191377  	23,969533  	24,069514  	27,100091  	25,949769  	27,186097  	27,069059  	30,225599  	29,423243  	32,214020  	56,037884  	25,023863  	23,908301  	26,476294  	61,128632  	0,220607  	0,111783  	-3745,609147  	1892,147983  	-0,054024  	-0,049999  	0,209385  	0,106097  	-3,536726  	5024,507717  	54905,977077  	7,963439  	-0,047950  
161,551000  	21,471787  	29,480602  	22,871862  	1256,670793  	70,084890  	62,138635  	0,006495  	0,006342  	0,003964  	0,004228  	0,004209  	0,000000  	-0,000000  	25,525597  	23,195384  	23,966178  	24,067960  	27,105253  	25,954181  	27,186222  	27,064967  	30,224219  	29,413538  	32,203708  	56,026683  	25,022642  	23,907301  	26,477369  	61,130971  	0,191725  	0,097149  	-3253,400065  	25602,101245  	-0,018547  	-0,049995  	0,191816  	0,097195  	-3,232748  	5025,643875  	54682,874773  	7,931080  	-0,047947  
162,553000  	21,502606  	29,476602  	22,869835  	1256,670793  	70,082959  	62,137951  	0,006505  	0,006349  	0,003967  	0,004225  	0,004228  	-0,000000  	-0,000000  	25,527197  	23,189076  	23,963535  	24,069639  	27,103613  	25,965735  	27,183879  	27,060565  	30,219792  	29,412195  	32,201893  	56,028427  	25,023177  	23,904511  	26,475470  	61,133393  	0,188568  	0,095549  	-3185,913805  	25605,328296  	-0,018549  	-0,050002  	0,207032  	0,104905  	-3,488639  	5041,369695  	54889,482363  	7,961046  	-0,047953  
163,554000  	21,512183  	29,470233  	22,867993  	1256,670793  	70,081402  	62,140499  	0,006500  	0,006338  	0,003967  	0,004218  	0,004247  	-0,000001  	-0,000000  	25,526124  	23,188445  	23,961651  	24,071402  	27,102471  	25,956266  	27,179420  	27,056918  	30,228578  	29,407693  	32,203699  	56,028320  	25,026573  	23,905195  	26,481368  	61,146774  	0,182959  	0,092707  	-3084,964634  	25609,233752  	-0,018552  	-0,050011  	0,221959  	0,112468  	-3,738231  	5017,760803  	54798,952086  	7,947916  	-0,047961  
164,553000  	21,517462  	29,456080  	22,867317  	57,696365  	70,081464  	62,149759  	0,006499  	0,006335  	0,003966  	0,004229  	0,004209  	-0,000001  	-0,000000  	25,521445  	23,190354  	23,968006  	24,064293  	27,098807  	25,952141  	27,181377  	27,055187  	30,231480  	29,409495  	32,201775  	56,027186  	25,024469  	23,908797  	26,472302  	61,148767  	0,191936  	0,097256  	-3228,425982  	1893,104820  	-0,054041  	-0,050016  	0,191903  	0,097238  	-3,228287  	5011,465947  	54779,618812  	7,945112  	-0,047965  
165,553000  	21,514608  	29,458050  	22,867379  	-242,047242  	70,079034  	62,146900  	0,006497  	0,006350  	0,003964  	0,004220  	0,004248  	0,000001  	-0,000000  	25,521376  	23,186828  	23,966417  	24,054634  	27,088843  	25,946504  	27,181952  	27,051264  	30,218149  	29,411718  	32,196811  	56,027379  	25,022978  	23,919024  	26,471633  	61,136404  	0,184532  	0,093504  	-3105,767722  	-27027,060771  	-0,103517  	-0,049993  	0,222309  	0,112645  	-3,739997  	5043,620789  	54719,204098  	7,936350  	-0,047945  
166,550000  	21,525167  	29,468818  	22,866826  	357,439972  	70,080280  	62,146652  	0,006502  	0,006325  	0,003963  	0,004251  	0,004226  	0,000001  	-0,000000  	25,526260  	23,193054  	23,965573  	24,063689  	27,098757  	25,954558  	27,185209  	27,055432  	30,221717  	29,415068  	32,194380  	56,033268  	25,026878  	23,928765  	26,475601  	61,138474  	0,209860  	0,106338  	-3532,143788  	12599,120951  	-0,036539  	-0,049985  	0,205363  	0,104059  	-3,455564  	4989,171489  	54836,397064  	7,953347  	-0,047938  
167,551000  	21,519734  	29,475095  	22,864339  	357,439972  	70,082056  	62,149542  	0,006502  	0,006358  	0,003963  	0,004216  	0,004238  	-0,000000  	-0,000000  	25,521605  	23,187308  	23,960267  	24,063785  	27,087969  	25,953140  	27,175395  	27,057351  	30,223383  	29,404717  	32,198536  	56,032058  	25,019797  	23,926802  	26,473201  	61,143836  	0,181695  	0,092066  	-3062,608358  	12604,032774  	-0,036553  	-0,050006  	0,214470  	0,108674  	-3,608298  	5060,951805  	54838,981424  	7,953722  	-0,047956  
168,551000  	21,536003  	29,477987  	22,862988  	956,927186  	70,081308  	62,150909  	0,006494  	0,006341  	0,003963  	0,004195  	0,004249  	0,000002  	-0,000000  	25,514936  	23,176207  	23,957056  	24,046705  	27,077327  	25,944778  	27,166288  	27,045843  	30,216169  	29,399152  	32,198028  	56,021053  	25,014063  	23,925348  	26,470220  	61,133269  	0,164634  	0,083421  	-2770,370855  	22554,151590  	-0,022183  	-0,049979  	0,223107  	0,113050  	-3,752615  	5024,380376  	54658,528123  	7,927549  	-0,047933  
169,551000  	21,555341  	29,479771  	22,862251  	956,927186  	70,075608  	62,153985  	0,006492  	0,006339  	0,003963  	0,004209  	0,004227  	-0,000001  	-0,000000  	25,514245  	23,177871  	23,960884  	24,048474  	27,082554  	25,943930  	27,167641  	27,044339  	30,214421  	29,403558  	32,193052  	56,022096  	25,018076  	23,927481  	26,475454  	61,128594  	0,175860  	0,089109  	-2952,720587  	22566,137804  	-0,022195  	-0,050008  	0,206225  	0,104496  	-3,464822  	5019,248562  	54625,129152  	7,922705  	-0,047959  
170,552000  	21,564182  	29,485802  	22,862373  	-242,047242  	70,070126  	62,143482  	0,006505  	0,006332  	0,003964  	0,004212  	0,004270  	-0,000000  	-0,000000  	25,514629  	23,179698  	23,956510  	24,056067  	27,086811  	25,947080  	27,169793  	27,046828  	30,215470  	29,405821  	32,192641  	56,027845  	25,025855  	23,937151  	26,482559  	61,129914  	0,178037  	0,090212  	-2988,205796  	-27030,795738  	-0,103533  	-0,050001  	0,240449  	0,121837  	-4,042377  	5003,936598  	54902,721913  	7,962967  	-0,047952  
171,551000  	21,563629  	29,486632  	22,863110  	657,183579  	70,065111  	62,131675  	0,006493  	0,006342  	0,003966  	0,004254  	0,004224  	-0,000001  	-0,000000  	25,510414  	23,178847  	23,954123  	24,054586  	27,087902  	25,948148  	27,168899  	27,048380  	30,215815  	29,406074  	32,192221  	56,028963  	25,030462  	23,947516  	26,480958  	61,129297  	0,212020  	0,107432  	-3559,212275  	18550,345301  	-0,027625  	-0,050018  	0,203491  	0,103111  	-3,423979  	5026,052779  	54632,282039  	7,923743  	-0,047967  
172,550000  	21,564980  	29,491617  	22,864707  	1256,670793  	70,065609  	62,132048  	0,006494  	0,006339  	0,003964  	0,004237  	0,004220  	-0,000001  	-0,000000  	25,513449  	23,180890  	23,960602  	24,054563  	27,089593  	25,948951  	27,170290  	27,052851  	30,216876  	29,407209  	32,193375  	56,034053  	25,038635  	23,955955  	26,479299  	61,139006  	0,198884  	0,100776  	-3340,232983  	25609,143607  	-0,018552  	-0,050010  	0,200393  	0,101541  	-3,371908  	5019,100706  	54659,417821  	7,927678  	-0,047960  
173,550000  	21,583336  	29,500662  	22,863694  	1256,670793  	70,062993  	62,137050  	0,006506  	0,006350  	0,003965  	0,004271  	0,004247  	0,000001  	-0,000000  	25,522417  	23,180534  	23,958670  	24,049030  	27,087998  	25,952025  	27,171786  	27,048494  	30,214873  	29,408512  	32,198031  	56,035089  	25,044568  	23,967075  	26,484450  	61,142893  	0,226022  	0,114527  	-3791,546666  	25601,037122  	-0,018546  	-0,049992  	0,222108  	0,112544  	-3,733702  	5042,377806  	54914,754016  	7,964712  	-0,047945  
174,550000  	21,577381  	29,506939  	22,863510  	1256,670793  	70,063616  	62,135434  	0,006502  	0,006345  	0,003961  	0,004254  	0,004251  	-0,000000  	-0,000000  	25,517330  	23,182977  	23,955407  	24,047836  	27,083124  	25,951291  	27,167297  	27,050103  	30,212070  	29,408427  	32,194879  	56,032642  	25,033718  	23,968110  	26,482386  	61,131406  	0,212820  	0,107837  	-3575,593248  	25604,815618  	-0,018549  	-0,050001  	0,224973  	0,113996  	-3,782937  	5033,038810  	54833,509077  	7,952928  	-0,047952  
175,551000  	21,563107  	29,512293  	22,862404  	1256,670793  	70,065017  	62,134502  	0,006492  	0,006329  	0,003964  	0,004198  	0,004237  	0,000000  	-0,000000  	25,517024  	23,185296  	23,954789  	24,052362  	27,088511  	25,946312  	27,168096  	27,054680  	30,213429  	29,407003  	32,190413  	56,032737  	25,038014  	23,971412  	26,478209  	61,133664  	0,166668  	0,084452  	-2807,131182  	25603,700266  	-0,018548  	-0,049998  	0,214043  	0,108457  	-3,600200  	4998,538076  	54625,708162  	7,922789  	-0,047950  
176,552000  	21,546531  	29,514262  	22,861114  	1256,670793  	70,063771  	62,139101  	0,006502  	0,006352  	0,003964  	0,004211  	0,004276  	-0,000000  	-0,000000  	25,514569  	23,177734  	23,957023  	24,050384  	27,089634  	25,945462  	27,168518  	27,049227  	30,213281  	29,400902  	32,181025  	56,023361  	25,041516  	23,968656  	26,481374  	61,136263  	0,177592  	0,089987  	-2998,099872  	25605,407161  	-0,018549  	-0,050002  	0,245009  	0,124148  	-4,118020  	5048,035960  	54832,294569  	7,952752  	-0,047953  
177,552000  	21,550276  	29,517985  	22,861452  	1256,670793  	70,060594  	62,139381  	0,006502  	0,006331  	0,003964  	0,004189  	0,004239  	0,000001  	-0,000000  	25,509619  	23,162219  	23,945648  	24,043766  	27,077123  	25,944892  	27,160113  	27,033704  	30,200724  	29,389805  	32,176636  	56,022615  	25,039727  	23,969193  	26,471360  	61,129480  	0,159520  	0,080830  	-2693,002119  	25600,935539  	-0,018546  	-0,049992  	0,215313  	0,109101  	-3,617315  	5001,715924  	54841,488112  	7,954085  	-0,047945  
178,551000  	21,539962  	29,519031  	22,860101  	1256,670793  	70,057355  	62,131302  	0,006498  	0,006342  	0,003965  	0,004204  	0,004248  	0,000000  	-0,000000  	25,523908  	23,183156  	23,956060  	24,051370  	27,088093  	25,952575  	27,171802  	27,050274  	30,210891  	29,405419  	32,191110  	56,034195  	25,053818  	23,971994  	26,482374  	61,136725  	0,171763  	0,087034  	-2903,818608  	25603,685059  	-0,018548  	-0,049998  	0,222605  	0,112796  	-3,742105  	5025,874503  	54738,156073  	7,939098  	-0,047950  
179,551000  	21,536003  	29,519769  	22,858811  	357,439972  	70,056389  	62,135621  	0,006496  	0,006347  	0,003964  	0,004258  	0,004169  	-0,000000  	-0,000000  	25,513743  	23,178154  	23,953751  	24,062636  	27,085322  	25,943382  	27,168227  	27,054768  	30,218540  	29,410565  	32,191583  	56,031799  	25,051887  	23,964465  	26,482269  	61,140769  	0,216043  	0,109471  	-3654,576038  	12603,655829  	-0,036551  	-0,050003  	0,159845  	0,080995  	-2,685293  	5036,309333  	54701,226555  	7,933742  	-0,047954  
180,551000  	21,546378  	29,514416  	22,860040  	956,927186  	70,060439  	62,136926  	0,006507  	0,006332  	0,003964  	0,004265  	0,004251  	0,000000  	-0,000000  	25,519829  	23,180557  	23,949988  	24,053351  	27,090759  	25,941815  	27,166404  	27,053558  	30,210410  	29,401327  	32,191375  	56,028016  	25,052766  	23,961319  	26,478578  	61,130336  	0,221299  	0,112134  	-3736,106676  	22561,797804  	-0,022191  	-0,049997  	0,224901  	0,113959  	-3,779497  	5004,104970  	54936,558672  	7,967874  	-0,047949  
181,553000  	21,550859  	29,507677  	22,860899  	1256,670793  	70,066232  	62,135745  	0,006495  	0,006350  	0,003964  	0,004251  	0,004236  	0,000000  	-0,000000  	25,518341  	23,174260  	23,947062  	24,052134  	27,085696  	25,950366  	27,172523  	27,044664  	30,211899  	29,406639  	32,193312  	56,023144  	25,057826  	23,966466  	26,473505  	61,141377  	0,210379  	0,106601  	-3546,743648  	25603,437879  	-0,018548  	-0,049998  	0,213111  	0,107985  	-3,584516  	5044,316209  	54689,851133  	7,932092  	-0,047949  
182,551000  	21,553929  	29,504170  	22,859364  	657,183579  	70,068350  	62,140593  	0,006498  	0,006335  	0,003965  	0,004194  	0,004228  	-0,000000  	-0,000000  	25,509151  	23,172147  	23,962157  	24,062351  	27,084836  	25,942949  	27,178153  	27,053527  	30,205752  	29,406000  	32,188682  	56,024859  	25,051393  	23,951826  	26,478358  	61,128443  	0,164011  	0,083106  	-2762,743746  	18544,915598  	-0,027617  	-0,050001  	0,206688  	0,104730  	-3,475275  	5011,323043  	54752,821963  	7,941225  	-0,047953  
183,552000  	21,575570  	29,502416  	22,858167  	657,183579  	70,065672  	62,140095  	0,006505  	0,006334  	0,003963  	0,004213  	0,004235  	0,000001  	-0,000000  	25,506578  	23,175114  	23,947819  	24,054247  	27,082049  	25,947291  	27,167528  	27,053273  	30,213303  	29,398626  	32,189767  	56,024575  	25,052255  	23,965618  	26,467471  	61,129730  	0,179435  	0,090921  	-3013,663371  	18539,553664  	-0,027609  	-0,049985  	0,211987  	0,107416  	-3,563405  	5008,002998  	54892,998788  	7,961556  	-0,047939  
184,549000  	21,582139  	29,503893  	22,858289  	57,696365  	70,062245  	62,133135  	0,006507  	0,006347  	0,003962  	0,004235  	0,004259  	0,000001  	-0,000000  	25,521896  	23,180040  	23,956008  	24,061106  	27,088667  	25,947117  	27,172215  	27,054145  	30,215274  	29,397732  	32,191573  	56,024621  	25,060272  	23,968546  	26,483881  	61,136021  	0,196825  	0,099732  	-3303,598381  	1892,837975  	-0,054020  	-0,049993  	0,231552  	0,117329  	-3,894007  	5037,335838  	54938,846467  	7,968206  	-0,047945  
185,551000  	21,574618  	29,507247  	22,857552  	1256,670793  	70,064332  	62,129127  	0,006499  	0,006342  	0,003963  	0,004276  	0,004215  	-0,000000  	-0,000000  	25,521239  	23,175334  	23,958898  	24,058843  	27,088731  	25,948359  	27,173870  	27,055029  	30,218946  	29,402133  	32,204649  	56,029522  	25,057781  	23,970512  	26,484074  	61,135805  	0,230135  	0,116611  	-3868,001411  	25607,193494  	-0,018551  	-0,050005  	0,196879  	0,099760  	-3,313461  	5025,221530  	54761,521230  	7,942487  	-0,047956  
186,554000  	21,574864  	29,513646  	22,858105  	657,183579  	70,067758  	62,145222  	0,006503  	0,006353  	0,003964  	0,004205  	0,004218  	-0,000001  	-0,000000  	25,510299  	23,175239  	23,957312  	24,054173  	27,086708  	25,946568  	27,170884  	27,051274  	30,215846  	29,406987  	32,190193  	56,025137  	25,049352  	23,956996  	26,485183  	61,127804  	0,173115  	0,087719  	-2911,891895  	18546,822978  	-0,027620  	-0,050007  	0,198935  	0,100802  	-3,342723  	5049,882395  	54854,988923  	7,956043  	-0,047957  
187,549000  	21,589782  	29,517431  	22,859487  	-242,047242  	70,070905  	62,139132  	0,006505  	0,006330  	0,003967  	0,004234  	0,004235  	0,000000  	-0,000000  	25,512961  	23,176520  	23,952871  	24,055771  	27,088827  	25,950252  	27,174978  	27,053724  	30,216030  	29,408246  	32,194610  	56,026558  	25,060830  	23,960949  	26,480503  	61,130676  	0,196190  	0,099411  	-3295,397984  	-27028,064874  	-0,103524  	-0,049995  	0,212438  	0,107644  	-3,573776  	5000,588255  	54903,703405  	7,963109  	-0,047947  
188,553000  	21,612866  	29,519338  	22,860592  	956,927186  	70,069908  	62,139878  	0,006495  	0,006348  	0,003967  	0,004260  	0,004246  	0,000001  	-0,000000  	25,522418  	23,183964  	23,964592  	24,063909  	27,101767  	25,956902  	27,185598  	27,062539  	30,218685  	29,410904  	32,200197  	56,027257  	25,050070  	23,958490  	26,488185  	61,132630  	0,216944  	0,109927  	-3634,261569  	22557,304756  	-0,022186  	-0,049986  	0,220982  	0,111973  	-3,716690  	5038,139496  	54687,570400  	7,931761  	-0,047940  
189,551000  	21,622014  	29,519954  	22,862097  	1256,670793  	70,067136  	62,138666  	0,006499  	0,006338  	0,003963  	0,004254  	0,004225  	0,000000  	-0,000000  	25,515188  	23,177051  	23,959328  	24,054813  	27,089694  	25,949685  	27,176207  	27,057456  	30,209054  	29,398996  	32,192430  	56,020524  	25,038218  	23,944115  	26,473382  	61,123238  	0,212578  	0,107715  	-3557,278567  	25602,611482  	-0,018547  	-0,049996  	0,204484  	0,103614  	-3,438533  	5016,817777  	54777,119185  	7,944749  	-0,047948  
190,551000  	21,601201  	29,526907  	22,863510  	1256,670793  	70,067572  	62,138045  	0,006505  	0,006351  	0,003965  	0,004197  	0,004233  	-0,000000  	-0,000000  	25,517978  	23,191047  	23,964560  	24,062704  	27,091596  	25,956345  	27,173412  	27,055103  	30,213649  	29,403539  	32,197266  	56,022464  	25,036389  	23,943558  	26,483662  	61,126681  	0,166339  	0,084285  	-2793,308525  	25606,981251  	-0,018550  	-0,050005  	0,210942  	0,106886  	-3,547597  	5044,523490  	54889,595341  	7,961063  	-0,047956  
191,552000  	21,577811  	29,533092  	22,864615  	357,439972  	70,066668  	62,131985  	0,006498  	0,006347  	0,003963  	0,004210  	0,004260  	-0,000000  	-0,000000  	25,519573  	23,192674  	23,975177  	24,070125  	27,100479  	25,959202  	27,180493  	27,064162  	30,225922  	29,419515  	32,198118  	56,030541  	25,036481  	23,939097  	26,489494  	61,134462  	0,176728  	0,089549  	-2978,836537  	12603,535309  	-0,036552  	-0,050004  	0,231919  	0,117515  	-3,902924  	5036,015743  	54756,359571  	7,941739  	-0,047955  
192,551000  	21,559086  	29,539738  	22,864062  	956,927186  	70,065921  	62,134720  	0,006496  	0,006326  	0,003964  	0,004237  	0,004231  	-0,000001  	-0,000000  	25,520086  	23,186164  	23,971600  	24,062633  	27,095292  	25,952856  	27,176953  	27,063836  	30,214800  	29,412501  	32,199885  	56,030261  	25,027041  	23,923442  	26,481394  	61,133895  	0,198958  	0,100813  	-3364,240190  	22567,713388  	-0,022197  	-0,050012  	0,209052  	0,105928  	-3,516557  	4992,033109  	54697,392381  	7,933186  	-0,047962  
193,551000  	21,526395  	29,544691  	22,864062  	956,927186  	70,062619  	62,139505  	0,006500  	0,006349  	0,003963  	0,004247  	0,004217  	-0,000000  	-0,000000  	25,524869  	23,185773  	23,963316  	24,060417  	27,097778  	25,957140  	27,178194  	27,066239  	30,216315  	29,408394  	32,197706  	56,028500  	25,022882  	23,915206  	26,483653  	61,131088  	0,206646  	0,104709  	-3510,728551  	22564,448528  	-0,022194  	-0,050004  	0,198380  	0,100520  	-3,333633  	5040,774026  	54785,310054  	7,945937  	-0,047955  
194,553000  	21,503434  	29,544445  	22,861790  	-242,047242  	70,060625  	62,147273  	0,006507  	0,006345  	0,003965  	0,004257  	0,004230  	0,000001  	-0,000000  	25,531244  	23,182181  	23,964918  	24,064918  	27,101769  	25,957853  	27,182313  	27,063177  	30,220222  	29,410962  	32,193489  	56,024612  	25,021736  	23,908666  	26,474806  	61,129668  	0,215199  	0,109043  	-3666,403541  	-27026,422817  	-0,103517  	-0,049992  	0,208717  	0,105758  	-3,503020  	5032,426161  	54938,443984  	7,968148  	-0,047944  
195,550000  	21,494410  	29,540384  	22,862803  	657,183579  	70,059878  	62,140095  	0,006497  	0,006344  	0,003965  	0,004226  	0,004241  	0,000000  	-0,000000  	25,524770  	23,176174  	23,964156  	24,065615  	27,098753  	25,953345  	27,181262  	27,055465  	30,217765  	29,410893  	32,200231  	56,023369  	25,013791  	23,905247  	26,475578  	61,126911  	0,189534  	0,096038  	-3231,137097  	18544,218919  	-0,027616  	-0,050000  	0,217171  	0,110042  	-3,647867  	5029,830541  	54719,783108  	7,936434  	-0,047951  
196,553000  	21,476361  	29,532753  	22,864154  	1256,670793  	70,061622  	62,134192  	0,006500  	0,006349  	0,003964  	0,004207  	0,004290  	0,000000  	-0,000000  	25,521584  	23,179746  	23,966769  	24,065679  	27,100585  	25,958567  	27,184048  	27,057960  	30,218931  	29,411949  	32,205822  	56,023999  	25,013220  	23,902680  	26,486285  	61,122263  	0,174184  	0,088260  	-2973,301298  	25604,007173  	-0,018548  	-0,049999  	0,255715  	0,129573  	-4,299457  	5041,189297  	54784,723983  	7,945852  	-0,047951  
197,551000  	21,466446  	29,518385  	22,864584  	956,927186  	70,062245  	62,136336  	0,006507  	0,006353  	0,003964  	0,004220  	0,004222  	0,000000  	-0,000000  	25,526988  	23,180116  	23,970913  	24,069869  	27,100767  	25,966854  	27,186341  	27,057782  	30,225015  	29,413407  	32,200765  	56,022426  	25,019292  	23,903993  	26,483900  	61,124292  	0,184664  	0,093571  	-3150,461292  	22560,220998  	-0,022189  	-0,049994  	0,202029  	0,102369  	-3,396149  	5050,161129  	54938,436923  	7,968147  	-0,047946  
198,551000  	21,463377  	29,502139  	22,864216  	-242,047242  	70,062432  	62,131550  	0,006501  	0,006335  	0,003964  	0,004231  	0,004221  	-0,000000  	-0,000000  	25,526846  	23,178329  	23,966949  	24,071114  	27,094771  	25,968611  	27,184266  	27,056740  	30,228695  	29,412422  	32,199582  	56,025529  	25,022050  	23,922269  	26,479965  	61,128214  	0,193613  	0,098105  	-3297,728156  	-27033,156302  	-0,103541  	-0,050006  	0,201606  	0,102155  	-3,391169  	5011,594702  	54802,800382  	7,948474  	-0,047956  
199,551000  	21,474888  	29,492078  	22,864400  	657,183579  	70,061965  	62,141835  	0,006496  	0,006348  	0,003966  	0,004251  	0,004246  	-0,000001  	-0,000000  	25,528218  	23,182503  	23,962350  	24,069535  	27,093610  	25,964673  	27,187762  	27,061547  	30,225142  	29,411016  	32,204256  	56,028605  	25,023406  	23,943270  	26,475819  	61,118575  	0,210181  	0,106500  	-3570,308290  	18547,695161  	-0,027621  	-0,050010  	0,221459  	0,112215  	-3,720066  	5039,079692  	54706,578863  	7,934518  	-0,047960  
200,552000  	21,494348  	29,484879  	22,864646  	1256,670793  	70,061093  	62,139971  	0,006502  	0,006345  	0,003963  	0,004224  	0,004244  	0,000001  	-0,000000  	25,526723  	23,176865  	23,957494  	24,069111  	27,095987  	25,961261  	27,185901  	27,056262  	30,223031  	29,412285  	32,202558  	56,021254  	25,019482  	23,954044  	26,468805  	61,109087  	0,187979  	0,095250  	-3182,549464  	25599,399332  	-0,018545  	-0,049989  	0,219441  	0,111192  	-3,686628  	5031,763992  	54836,100498  	7,953304  	-0,047942  
201,550000  	21,496129  	29,476787  	22,865721  	57,696365  	70,065111  	62,143047  	0,006505  	0,006342  	0,003964  	0,004227  	0,004197  	-0,000001  	-0,000000  	25,524835  	23,181035  	23,964356  	24,061503  	27,104238  	25,966093  	27,179688  	27,064357  	30,222711  	29,418194  	32,198140  	56,016404  	25,020837  	23,962105  	26,469587  	61,115942  	0,190511  	0,096533  	-3221,421154  	1892,950333  	-0,054034  	-0,050009  	0,182383  	0,092415  	-3,064405  	5025,566763  	54889,334080  	7,961025  	-0,047959  
202,553000  	21,486982  	29,470326  	22,866642  	1256,670793  	70,064550  	62,140934  	0,006492  	0,006342  	0,003963  	0,004215  	0,004246  	-0,000001  	-0,000000  	25,536419  	23,187210  	23,966960  	24,063830  	27,106725  	25,962242  	27,193575  	27,070380  	30,232186  	29,423266  	32,203534  	56,021483  	25,023998  	23,957955  	26,476613  	61,123325  	0,180797  	0,091611  	-3058,203610  	25607,248892  	-0,018551  	-0,050006  	0,221348  	0,112159  	-3,719831  	5027,156395  	54616,549924  	7,921461  	-0,047957  
203,550000  	21,479246  	29,466449  	22,866642  	1256,670793  	70,060501  	62,138915  	0,006500  	0,006342  	0,003967  	0,004193  	0,004264  	-0,000001  	-0,000000  	25,532629  	23,193319  	23,965785  	24,069950  	27,096096  	25,961395  	27,191282  	27,064097  	30,231899  	29,415123  	32,204470  	56,021152  	25,025402  	23,949544  	26,476864  	61,117610  	0,162626  	0,082404  	-2752,160734  	25611,154515  	-0,018554  	-0,050015  	0,235591  	0,119376  	-3,958177  	5025,536343  	54785,366542  	7,945946  	-0,047964  
204,552000  	21,477711  	29,466018  	22,868177  	1256,670793  	70,057137  	62,140655  	0,006509  	0,006346  	0,003963  	0,004240  	0,004193  	-0,000001  	-0,000000  	25,523190  	23,183083  	23,962581  	24,067041  	27,093675  	25,958633  	27,183294  	27,067680  	30,221515  	29,409032  	32,199927  	56,022341  	25,014924  	23,940163  	26,475723  	61,111294  	0,200970  	0,101833  	-3401,546210  	25608,453394  	-0,018552  	-0,050009  	0,179396  	0,090901  	-3,012098  	5034,010133  	54993,252191  	7,976097  	-0,047959  
205,550000  	21,471818  	29,466941  	22,868546  	57,696365  	70,057729  	62,137982  	0,006496  	0,006338  	0,003963  	0,004218  	0,004233  	-0,000001  	-0,000000  	25,528144  	23,188768  	23,967857  	24,069186  	27,105565  	25,957667  	27,175506  	27,068133  	30,223345  	29,414170  	32,203631  	56,024898  	25,017490  	23,942345  	26,476518  	61,116321  	0,182919  	0,092687  	-3098,665686  	1892,885821  	-0,054037  	-0,050012  	0,210412  	0,106618  	-3,534329  	5018,137872  	54696,876921  	7,933111  	-0,047962  
206,550000  	21,480904  	29,466818  	22,869283  	657,183579  	70,058352  	62,131333  	0,006501  	0,006338  	0,003964  	0,004236  	0,004242  	0,000000  	-0,000000  	25,531418  	23,184139  	23,958736  	24,068173  	27,088275  	25,952496  	27,178941  	27,052740  	30,225019  	29,409965  	32,193562  	56,017335  	25,025566  	23,935190  	26,476179  	61,111774  	0,197557  	0,100104  	-3342,778544  	18543,574561  	-0,027615  	-0,049999  	0,218279  	0,110604  	-3,669831  	5018,441366  	54810,292202  	7,949561  	-0,047950  
207,550000  	21,485692  	29,467187  	22,871217  	-242,047242  	70,060719  	62,116667  	0,006504  	0,006348  	0,003964  	0,004208  	0,004244  	0,000001  	-0,000000  	25,527348  	23,175550  	23,957344  	24,063892  	27,101289  	25,958558  	27,174813  	27,041785  	30,212426  	29,408342  	32,200792  	56,014897  	25,013654  	23,944618  	26,483992  	61,109808  	0,174888  	0,088617  	-2957,559363  	-27025,601377  	-0,103510  	-0,049990  	0,219687  	0,111317  	-3,701431  	5038,557597  	54880,147598  	7,959692  	-0,047943  
208,549000  	21,486920  	29,461034  	22,871893  	956,927186  	70,059847  	62,114056  	0,006498  	0,006350  	0,003964  	0,004284  	0,004170  	-0,000000  	-0,000000  	25,516200  	23,163270  	23,959374  	24,057722  	27,082982  	25,946308  	27,172301  	27,042925  	30,214003  	29,399556  	32,195398  	56,014136  	25,011102  	23,949821  	26,476357  	61,110341  	0,236696  	0,119936  	-3999,114634  	22563,079450  	-0,022192  	-0,050002  	0,160631  	0,081393  	-2,707007  	5043,031486  	54748,225192  	7,940559  	-0,047953  
209,551000  	21,488823  	29,459096  	22,871493  	956,927186  	70,060189  	62,097402  	0,006498  	0,006343  	0,003966  	0,004245  	0,004265  	0,000000  	-0,000000  	25,524487  	23,187285  	23,964235  	24,055656  	27,094964  	25,947910  	27,176432  	27,047541  	30,210572  	29,403244  	32,193746  	56,012290  	25,016359  	23,951850  	26,479994  	61,110967  	0,204748  	0,103747  	-3457,663657  	22559,989604  	-0,022189  	-0,049994  	0,236133  	0,119651  	-3,987905  	5027,902043  	54746,346941  	7,940286  	-0,047946  
210,553000  	21,513073  	29,460019  	22,868730  	357,439972  	70,064363  	62,105294  	0,006503  	0,006344  	0,003963  	0,004209  	0,004266  	0,000000  	-0,000000  	25,516100  	23,176662  	23,943319  	24,057569  	27,090242  	25,945278  	27,164080  	27,046797  	30,211372  	29,397429  	32,182541  	56,008199  	25,017699  	23,944548  	26,473372  	61,101932  	0,176089  	0,089225  	-2964,971123  	12602,065394  	-0,036548  	-0,049998  	0,237317  	0,120250  	-4,006024  	5030,401450  	54856,641218  	7,956283  	-0,047950  
211,550000  	21,542725  	29,460203  	22,867256  	1256,670793  	70,066824  	62,119587  	0,006504  	0,006342  	0,003965  	0,004197  	0,004221  	-0,000000  	-0,000000  	25,523588  	23,180460  	23,954241  	24,059460  	27,088886  	25,954062  	27,179226  	27,053655  	30,212995  	29,414204  	32,192202  	56,014246  	25,019039  	23,931935  	26,477769  	61,107759  	0,166531  	0,084383  	-2793,638781  	25606,677695  	-0,018550  	-0,050005  	0,201186  	0,101943  	-3,391082  	5025,986987  	54875,790903  	7,959061  	-0,047956  
212,552000  	21,565379  	29,465188  	22,868054  	1256,670793  	70,064208  	62,120830  	0,006494  	0,006343  	0,003963  	0,004277  	0,004207  	0,000000  	-0,000000  	25,517158  	23,185291  	23,953834  	24,051887  	27,090800  	25,935761  	27,169233  	27,054040  	30,209083  	29,404151  	32,194791  	56,017453  	25,020668  	23,924663  	26,468339  	61,121619  	0,231162  	0,117132  	-3869,197247  	25604,139269  	-0,018548  	-0,050000  	0,190306  	0,096430  	-3,206136  	5028,966042  	54673,172831  	7,929673  	-0,047951  
213,549000  	21,561081  	29,465557  	22,868085  	956,927186  	70,061155  	62,125087  	0,006497  	0,006334  	0,003964  	0,004206  	0,004269  	0,000000  	-0,000000  	25,512814  	23,168545  	23,949362  	24,047914  	27,086424  	25,934434  	27,163543  	27,050714  	30,205435  	29,396780  	32,190547  	56,012100  	25,006292  	23,922214  	26,468108  	61,113398  	0,173680  	0,088005  	-2908,779918  	22562,301092  	-0,022192  	-0,049999  	0,239669  	0,121442  	-4,034045  	5009,011109  	54732,591931  	7,938291  	-0,047951  
214,551000  	21,553469  	29,469618  	22,869927  	357,439972  	70,058788  	62,122601  	0,006505  	0,006349  	0,003961  	0,004212  	0,004210  	0,000000  	-0,000000  	25,513948  	23,176446  	23,957296  	24,056290  	27,079713  	25,942168  	27,174656  	27,051811  	30,205464  	29,401624  	32,185749  	56,017033  	25,023899  	23,941206  	26,470802  	61,114802  	0,178240  	0,090316  	-2989,557898  	12602,320922  	-0,036549  	-0,049999  	0,192676  	0,097630  	-3,243113  	5042,035402  	54905,186235  	7,963324  	-0,047951  
215,550000  	21,549509  	29,478664  	22,870664  	357,439972  	70,053929  	62,136553  	0,006501  	0,006333  	0,003967  	0,004227  	0,004215  	-0,000001  	-0,000000  	25,509643  	23,180985  	23,944523  	24,053565  	27,079960  	25,940169  	27,164492  	27,045373  	30,201561  	29,399224  	32,190426  	56,010425  	25,013662  	23,957001  	26,467139  	61,111287  	0,190369  	0,096461  	-3198,235472  	12605,666254  	-0,036559  	-0,050014  	0,196237  	0,099435  	-3,295241  	5006,375165  	54805,123482  	7,948811  	-0,047964  
216,552000  	21,560252  	29,492817  	22,871524  	956,927186  	70,049256  	62,128661  	0,006497  	0,006357  	0,003966  	0,004184  	0,004238  	-0,000000  	-0,000000  	25,516757  	23,185176  	23,956159  	24,055892  	27,089684  	25,951373  	27,170435  	27,050069  	30,209273  	29,405013  	32,196564  	56,022818  	25,028311  	23,985793  	26,476793  	61,121121  	0,155538  	0,078812  	-2614,190480  	22563,418517  	-0,022193  	-0,050002  	0,215086  	0,108986  	-3,613214  	5057,896345  	54729,718066  	7,937874  	-0,047954  
217,550000  	21,569277  	29,498386  	22,874656  	57,696365  	70,046609  	62,122601  	0,006502  	0,006344  	0,003965  	0,004251  	0,004243  	0,000000  	-0,000000  	25,515874  	23,175752  	23,957464  	24,057844  	27,086335  	25,946333  	27,173577  	27,043940  	30,211645  	29,401148  	32,199174  	56,024184  	25,032267  	24,007243  	26,475888  	61,117072  	0,210005  	0,106411  	-3528,093902  	1892,050334  	-0,054023  	-0,049997  	0,218694  	0,110814  	-3,675400  	5031,235529  	54827,690736  	7,952084  	-0,047949  
218,549000  	21,563077  	29,500970  	22,876192  	657,183579  	70,047855  	62,126019  	0,006505  	0,006336  	0,003961  	0,004222  	0,004246  	0,000000  	-0,000000  	25,517253  	23,177133  	23,957814  	24,056938  	27,089041  	25,940926  	27,170387  	27,047383  	30,207366  	29,405318  	32,195362  	56,021953  	25,027765  	24,020836  	26,476698  	61,117718  	0,186543  	0,094523  	-3137,412663  	18542,630785  	-0,027614  	-0,049997  	0,220773  	0,111867  	-3,709326  	5013,937056  	54892,906994  	7,961543  	-0,047949  
219,550000  	21,566208  	29,498847  	22,877666  	-242,047242  	70,055143  	62,132887  	0,006496  	0,006343  	0,003965  	0,004267  	0,004245  	-0,000001  	-0,000000  	25,510973  	23,168012  	23,948100  	24,040493  	27,078968  	25,939931  	27,162846  	27,044022  	30,193521  	29,394082  	32,189661  	56,014171  	25,026869  	24,032462  	26,471326  	61,106697  	0,223018  	0,113005  	-3748,385682  	-27036,956287  	-0,103551  	-0,050013  	0,220261  	0,111608  	-3,700933  	5028,110032  	54709,615133  	7,934959  	-0,047963  
220,552000  	21,567620  	29,503462  	22,878096  	956,927186  	70,065111  	62,122695  	0,006500  	0,006352  	0,003965  	0,004241  	0,004249  	0,000002  	-0,000000  	25,513003  	23,172302  	23,959266  	24,046541  	27,077284  	25,944708  	27,169956  	27,049170  	30,197956  	29,394073  	32,193448  	56,013409  	25,035940  	24,049667  	26,481196  	61,108270  	0,202030  	0,102370  	-3397,012145  	22552,924380  	-0,022183  	-0,049977  	0,223554  	0,113277  	-3,765816  	5047,448073  	54794,454170  	7,947264  	-0,047932  
221,550000  	21,584625  	29,511185  	22,878341  	-242,047242  	70,073023  	62,129717  	0,006506  	0,006339  	0,003963  	0,004225  	0,004213  	-0,000000  	-0,000000  	25,514906  	23,172009  	23,961528  	24,052580  	27,080681  	25,945504  	27,167869  	27,051666  	30,205163  	29,396085  	32,190372  	56,015868  	25,039311  	24,061250  	26,485013  	61,111342  	0,189307  	0,095923  	-3179,341399  	-27032,429626  	-0,103533  	-0,050004  	0,194710  	0,098661  	-3,280303  	5020,454758  	54917,041811  	7,965044  	-0,047954  
222,551000  	21,594878  	29,510200  	22,878525  	-242,047242  	70,073957  	62,118717  	0,006497  	0,006353  	0,003963  	0,004236  	0,004222  	0,000000  	-0,000000  	25,509618  	23,159279  	23,945389  	24,042094  	27,070003  	25,939664  	27,160268  	27,042313  	30,199805  	29,392266  	32,180417  	56,012573  	25,029953  	24,066510  	26,475226  	61,099547  	0,198060  	0,100358  	-3321,627365  	-27029,193140  	-0,103521  	-0,049997  	0,201910  	0,102309  	-3,406698  	5049,443778  	54735,381063  	7,938696  	-0,047949  
223,551000  	21,592944  	29,506139  	22,877696  	657,183579  	70,070998  	62,135776  	0,006496  	0,006346  	0,003964  	0,004230  	0,004221  	-0,000001  	-0,000000  	25,508659  	23,157247  	23,941998  	24,036783  	27,063851  	25,934853  	27,161494  	27,035967  	30,198206  	29,395012  	32,177892  	56,007774  	25,024910  	24,077531  	26,472097  	61,100619  	0,193000  	0,097794  	-3235,895686  	18545,787661  	-0,027619  	-0,050006  	0,200988  	0,101842  	-3,382630  	5034,571138  	54704,651185  	7,934239  	-0,047957  
224,554000  	21,579929  	29,505031  	22,878802  	57,696365  	70,070313  	62,125149  	0,006502  	0,006336  	0,003961  	0,004246  	0,004253  	-0,000000  	-0,000000  	25,504483  	23,161878  	23,943376  	24,036369  	27,070712  	25,935841  	27,157287  	27,033234  	30,198786  	29,393608  	32,178093  	56,005200  	25,028877  	24,086413  	26,472225  	61,107797  	0,206134  	0,104449  	-3461,309706  	1892,032621  	-0,054028  	-0,050004  	0,226467  	0,114752  	-3,816200  	5012,260409  	54826,405617  	7,951898  	-0,047955  
225,550000  	21,569676  	29,512662  	22,878372  	-242,047242  	70,065703  	62,131830  	0,006498  	0,006350  	0,003962  	0,004275  	0,004218  	0,000001  	-0,000000  	25,506717  	23,171519  	23,947326  	24,047826  	27,080591  	25,942443  	27,162694  	27,040239  	30,205633  	29,393348  	32,181125  	56,012036  	25,037327  	24,090134  	26,479587  	61,105625  	0,229089  	0,116081  	-3855,454345  	-27027,335173  	-0,103514  	-0,049993  	0,198572  	0,100618  	-3,341391  	5044,483166  	54755,618156  	7,941631  	-0,047945  
226,550000  	21,568755  	29,519923  	22,877451  	357,439972  	70,061280  	62,136180  	0,006493  	0,006348  	0,003964  	0,004241  	0,004241  	-0,000000  	-0,000000  	25,520365  	23,179578  	23,952874  	24,060466  	27,088481  	25,942443  	27,174185  	27,049750  	30,216144  	29,397178  	32,184555  	56,015834  	25,042773  	24,099500  	26,488121  	61,109630  	0,202241  	0,102477  	-3407,121186  	12602,861631  	-0,036551  	-0,050004  	0,217147  	0,110030  	-3,649908  	5038,373661  	54650,196033  	7,926341  	-0,047954  
227,550000  	21,586068  	29,526107  	22,877819  	1256,670793  	70,062245  	62,123471  	0,006502  	0,006338  	0,003965  	0,004203  	0,004254  	0,000000  	-0,000000  	25,512180  	23,175091  	23,949395  	24,050006  	27,084072  	25,936815  	27,167505  	27,040139  	30,207644  	29,392651  	32,179304  	56,004176  	25,036075  	24,113193  	26,478833  	61,106471  	0,171273  	0,086785  	-2881,362998  	25603,649638  	-0,018548  	-0,049999  	0,227477  	0,115264  	-3,830144  	5018,369206  	54825,911340  	7,951826  	-0,047951  
228,552000  	21,577166  	29,527646  	22,876284  	57,696365  	70,069472  	62,129872  	0,006503  	0,006343  	0,003963  	0,004252  	0,004222  	0,000000  	-0,000000  	25,514723  	23,173036  	23,961982  	24,053007  	27,083142  	25,939854  	27,176838  	27,040479  	30,217954  	29,393928  	32,183630  	56,014036  	25,046132  	24,138327  	26,474117  	61,108446  	0,210412  	0,106617  	-3544,457401  	1892,003917  	-0,054024  	-0,049999  	0,202209  	0,102461  	-3,405044  	5028,433335  	54847,461797  	7,954952  	-0,047950  
229,552000  	21,543830  	29,527769  	22,877205  	956,927186  	70,074082  	62,141276  	0,006497  	0,006350  	0,003961  	0,004211  	0,004217  	-0,000000  	-0,000000  	25,519245  	23,178844  	23,966497  	24,050439  	27,083546  	25,943914  	27,177827  	27,047173  	30,212408  	29,394882  	32,187765  	56,008353  	25,051761  	24,151838  	26,476561  	61,106680  	0,177250  	0,089814  	-2998,406216  	22563,390954  	-0,022193  	-0,050003  	0,198493  	0,100578  	-3,339612  	5043,200566  	54723,807931  	7,937017  	-0,047954  
230,550000  	21,550890  	29,528815  	22,878126  	357,439972  	70,075141  	62,146496  	0,006501  	0,006340  	0,003964  	0,004210  	0,004246  	-0,000000  	-0,000000  	25,527417  	23,184704  	23,956442  	24,048880  	27,086264  	25,956875  	27,177920  	27,050185  	30,208140  	29,400718  	32,187922  	56,015954  	25,058155  	24,168319  	26,479666  	61,111643  	0,176479  	0,089423  	-2983,126943  	12602,132829  	-0,036549  	-0,050000  	0,221198  	0,112083  	-3,719678  	5022,584171  	54818,193565  	7,950707  	-0,047952  
231,554000  	21,569308  	29,531492  	22,879324  	357,439972  	70,070500  	62,133259  	0,006503  	0,006342  	0,003962  	0,004228  	0,004243  	0,000002  	-0,000000  	25,531737  	23,178137  	23,956722  	24,048578  	27,092869  	25,942555  	27,170964  	27,044414  	30,204783  	29,394932  	32,188318  	56,018799  	25,062484  	24,178164  	26,477466  	61,108424  	0,191755  	0,097163  	-3234,931327  	12596,905769  	-0,036534  	-0,049978  	0,218513  	0,110722  	-3,678504  	5026,806917  	54863,455173  	7,957271  	-0,047932  
232,551000  	21,572193  	29,531615  	22,879692  	956,927186  	70,065017  	62,144881  	0,006499  	0,006342  	0,003962  	0,004207  	0,004236  	-0,000000  	-0,000000  	25,523698  	23,185626  	23,958375  	24,059742  	27,095788  	25,945655  	27,170985  	27,052491  	30,213055  	29,406758  	32,196885  	56,021415  	25,059798  	24,174830  	26,468095  	61,111680  	0,174264  	0,088301  	-2938,840768  	22562,907737  	-0,022192  	-0,050002  	0,213284  	0,108073  	-3,582743  	5026,487858  	54772,875468  	7,944134  	-0,047953  
233,554000  	21,578609  	29,522631  	22,880798  	1256,670793  	70,062027  	62,158180  	0,006492  	0,006332  	0,003966  	0,004208  	0,004263  	0,000001  	-0,000000  	25,525869  	23,173273  	23,952733  	24,048838  	27,076839  	25,934403  	27,172701  	27,043937  	30,199836  	29,394750  	32,182215  	56,003948  	25,056986  	24,156697  	26,465701  	61,088358  	0,175363  	0,088858  	-2951,657677  	25600,322338  	-0,018546  	-0,049992  	0,234762  	0,118956  	-3,935431  	5004,271220  	54619,670927  	7,921914  	-0,047945  
234,551000  	21,573943  	29,520046  	22,880061  	657,183579  	70,063211  	62,141028  	0,006501  	0,006346  	0,003963  	0,004247  	0,004252  	0,000000  	-0,000000  	25,524378  	23,190410  	23,968925  	24,061038  	27,093425  	25,951718  	27,175632  	27,060966  	30,210644  	29,404464  	32,195145  	56,012538  	25,061589  	24,140252  	26,480248  	61,104035  	0,206845  	0,104810  	-3482,466350  	18542,335412  	-0,027614  	-0,049996  	0,225525  	0,114275  	-3,789348  	5035,727105  	54805,243520  	7,948829  	-0,047948  
235,553000  	21,569431  	29,521708  	22,879140  	657,183579  	70,068475  	62,130774  	0,006496  	0,006346  	0,003963  	0,004245  	0,004251  	-0,000000  	-0,000000  	25,525870  	23,177581  	23,966628  	24,053202  	27,092517  	25,956897  	27,176892  	27,063971  	30,218460  	29,411827  	32,195627  	56,008289  	25,069455  	24,117885  	26,469907  	61,102488  	0,205423  	0,104089  	-3461,206329  	18545,383898  	-0,027618  	-0,050005  	0,225362  	0,114192  	-3,794016  	5035,398143  	54696,467378  	7,933052  	-0,047956  
236,552000  	21,561388  	29,522692  	22,879631  	1256,670793  	70,067291  	62,131333  	0,006500  	0,006337  	0,003966  	0,004244  	0,004257  	0,000000  	-0,000000  	25,519231  	23,180686  	23,959267  	24,057809  	27,097995  	25,950481  	27,182195  	27,053537  	30,217973  	29,407150  	32,179838  	56,003585  	25,060866  	24,104414  	26,473271  	61,108133  	0,204625  	0,103685  	-3451,679309  	25603,311429  	-0,018548  	-0,049999  	0,230051  	0,116569  	-3,872116  	5015,495560  	54783,933141  	7,945738  	-0,047950  
237,549000  	21,560437  	29,524907  	22,879355  	1256,670793  	70,062214  	62,132389  	0,006503  	0,006342  	0,003963  	0,004196  	0,004299  	-0,000001  	-0,000000  	25,530865  	23,187864  	23,964148  	24,071470  	27,096830  	25,961696  	27,168896  	27,054674  	30,213607  	29,411693  	32,199370  	56,013276  	25,062798  	24,086818  	26,487564  	61,108944  	0,165037  	0,083625  	-2784,997457  	25611,199023  	-0,018554  	-0,050016  	0,262739  	0,133132  	-4,418884  	5025,520780  	54851,698453  	7,955566  	-0,047965  
238,554000  	21,543922  	29,526138  	22,879662  	1256,670793  	70,059784  	62,144570  	0,006505  	0,006360  	0,003961  	0,004238  	0,004208  	-0,000000  	-0,000000  	25,517251  	23,179081  	23,963904  	24,065852  	27,092167  	25,953931  	27,175375  	27,052700  	30,211326  	29,398072  	32,188106  	56,010261  	25,058008  	24,065920  	26,470030  	61,105326  	0,199219  	0,100946  	-3369,320402  	25604,193542  	-0,018549  	-0,050001  	0,191301  	0,096933  	-3,211470  	5064,397775  	54902,213515  	7,962893  	-0,047952  
239,549000  	21,513533  	29,528815  	22,880491  	357,439972  	70,055953  	62,131799  	0,006499  	0,006338  	0,003965  	0,004242  	0,004253  	-0,000000  	-0,000000  	25,527117  	23,186584  	23,967667  	24,064130  	27,098488  	25,958595  	27,176470  	27,064381  	30,216060  	29,400576  	32,197087  	56,019913  	25,062151  	24,059179  	26,466870  	61,106691  	0,202640  	0,102679  	-3441,380939  	12602,202437  	-0,036549  	-0,050001  	0,226588  	0,114814  	-3,808146  	5017,749484  	54760,349089  	7,942317  	-0,047953  
240,553000  	21,492353  	29,527523  	22,879877  	956,927186  	70,053399  	62,127076  	0,006498  	0,006327  	0,003964  	0,004211  	0,004249  	0,000000  	-0,000000  	25,525999  	23,185796  	23,963007  	24,058215  	27,091853  	25,957071  	27,174396  	27,060360  	30,221930  	29,401930  	32,195682  	56,008748  	25,057564  	24,041253  	26,474708  	61,094511  	0,177878  	0,090132  	-3028,350436  	22560,069053  	-0,022190  	-0,049995  	0,223609  	0,113304  	-3,759113  	4994,627314  	54739,518864  	7,939296  	-0,047947  
241,552000  	21,494717  	29,522292  	22,879846  	1256,670793  	70,049101  	62,131799  	0,006501  	0,006356  	0,003962  	0,004217  	0,004227  	-0,000000  	-0,000000  	25,523291  	23,189635  	23,963376  	24,065685  	27,097699  	25,952272  	27,182686  	27,061372  	30,222076  	29,406910  	32,188276  	56,011697  	25,050301  	24,020899  	26,480446  	61,104748  	0,182373  	0,092410  	-3101,956027  	25604,933795  	-0,018549  	-0,050002  	0,205988  	0,104376  	-3,458941  	5056,156027  	54812,417591  	7,949869  	-0,047953  
242,550000  	21,498707  	29,512631  	22,878372  	1256,670793  	70,046048  	62,133725  	0,006505  	0,006336  	0,003963  	0,004191  	0,004235  	-0,000000  	-0,000000  	25,534235  	23,191121  	23,967278  	24,068866  	27,097722  	25,957017  	27,181570  	27,063882  	30,218463  	29,410957  	32,193650  	56,011898  	25,054770  	24,008861  	26,483804  	61,102849  	0,161239  	0,081701  	-2737,811171  	25605,681031  	-0,018550  	-0,050004  	0,212591  	0,107721  	-3,567569  	5012,698318  	54901,479161  	7,962786  	-0,047955  
243,550000  	21,515099  	29,500816  	22,877819  	357,439972  	70,044304  	62,137858  	0,006494  	0,006354  	0,003969  	0,004247  	0,004279  	-0,000001  	-0,000000  	25,527746  	23,192251  	23,963817  	24,067538  	27,096085  	25,956550  	27,179897  	27,070744  	30,215261  	29,414690  	32,200626  	56,008951  	25,053343  	23,993627  	26,483429  	61,097907  	0,206790  	0,104782  	-3498,912625  	12603,719839  	-0,036554  	-0,050007  	0,247065  	0,125189  	-4,143012  	5052,424956  	54655,675442  	7,927136  	-0,047958  
244,552000  	21,539348  	29,492263  	22,877819  	956,927186  	70,044054  	62,134627  	0,006499  	0,006338  	0,003962  	0,004238  	0,004202  	0,000000  	-0,000000  	25,526651  	23,189010  	23,968424  	24,069560  	27,092724  	25,962977  	27,185654  	27,067383  	30,220136  	29,415893  	32,201776  	56,007992  	25,051179  	23,984590  	26,486059  	61,101690  	0,199720  	0,101199  	-3365,387604  	22561,869763  	-0,022191  	-0,049999  	0,186021  	0,094258  	-3,120549  	5017,407080  	54766,937089  	7,943273  	-0,047951  
245,550000  	21,584441  	29,482417  	22,877512  	956,927186  	70,042466  	62,121638  	0,006503  	0,006356  	0,003963  	0,004210  	0,004269  	-0,000000  	-0,000000  	25,531226  	23,191266  	23,975727  	24,068163  	27,102187  	25,962573  	27,186659  	27,066183  	30,225715  	29,414310  	32,202442  	56,008187  	25,052099  	23,970910  	26,487309  	61,112572  	0,176893  	0,089633  	-2960,142771  	22562,565096  	-0,022192  	-0,050001  	0,239595  	0,121404  	-4,025053  	5056,871255  	54855,447894  	7,956110  	-0,047952  
246,552000  	21,600219  	29,478417  	22,876775  	357,439972  	70,037544  	62,115921  	0,006498  	0,006339  	0,003966  	0,004258  	0,004217  	-0,000001  	-0,000000  	25,532417  	23,187506  	23,974419  	24,069072  	27,101270  	25,962288  	27,191770  	27,066205  	30,224581  	29,418706  	32,196996  	56,008131  	25,046746  	23,955966  	26,490015  	61,112911  	0,215852  	0,109374  	-3603,046313  	12604,298260  	-0,036555  	-0,050010  	0,198154  	0,100406  	-3,329200  	5020,521965  	54751,663944  	7,941057  	-0,047960  
247,549000  	21,607402  	29,482110  	22,877144  	1256,670793  	70,029072  	62,120520  	0,006499  	0,006345  	0,003962  	0,004220  	0,004233  	-0,000000  	-0,000000  	25,524357  	23,176009  	23,961868  	24,065081  	27,083810  	25,955688  	27,180813  	27,054592  	30,216867  	29,409351  	32,191289  	56,002502  	25,037383  	23,939160  	26,477321  	61,097262  	0,184511  	0,093493  	-3078,522132  	25604,603440  	-0,018549  	-0,050001  	0,210544  	0,106684  	-3,531540  	5032,298821  	54779,717668  	7,945126  	-0,047952  
248,552000  	21,611024  	29,489555  	22,878249  	57,696365  	70,023590  	62,111944  	0,006503  	0,006331  	0,003965  	0,004232  	0,004207  	0,000001  	-0,000000  	25,518165  	23,176015  	23,961646  	24,060649  	27,079390  	25,947508  	27,175405  	27,055255  	30,213342  	29,402074  	32,189808  	56,004826  	25,035670  	23,929688  	26,468534  	61,097965  	0,194611  	0,098611  	-3248,614259  	1891,465869  	-0,054011  	-0,049986  	0,189880  	0,096214  	-3,186178  	5002,315131  	54859,564511  	7,956707  	-0,047940  
249,549000  	21,607648  	29,501062  	22,877973  	1256,670793  	70,024898  	62,125833  	0,006505  	0,006355  	0,003964  	0,004270  	0,004203  	0,000000  	-0,000000  	25,523459  	23,185469  	23,974995  	24,070829  	27,090260  	25,958920  	27,186767  	27,067405  	30,219580  	29,410338  	32,192774  	56,012253  	25,043049  	23,926149  	26,475636  	61,112474  	0,225239  	0,114130  	-3766,980996  	25601,415310  	-0,018547  	-0,049994  	0,187334  	0,094924  	-3,138460  	5055,090613  	54905,687572  	7,963397  	-0,047947  
250,553000  	21,592852  	29,514354  	22,877543  	1256,670793  	70,030754  	62,125149  	0,006494  	0,006334  	0,003963  	0,004248  	0,004210  	-0,000000  	-0,000000  	25,527370  	23,186985  	23,972261  	24,076240  	27,092747  	25,968397  	27,185386  	27,067055  	30,222224  	29,413940  	32,198385  	56,008568  	25,046354  	23,918154  	26,476505  	61,110305  	0,207726  	0,105256  	-3486,452889  	25606,452323  	-0,018550  	-0,050005  	0,192826  	0,097706  	-3,233134  	5009,086806  	54662,630618  	7,928144  	-0,047956  
251,552000  	21,586866  	29,523769  	22,878648  	1256,670793  	70,032810  	62,119525  	0,006501  	0,006346  	0,003963  	0,004216  	0,004265  	-0,000001  	-0,000000  	25,521628  	23,182147  	23,962998  	24,066645  	27,088344  	25,957597  	27,179626  	27,062238  	30,214860  	29,410098  	32,197336  	56,005353  	25,042614  	23,910863  	26,476942  	61,105159  	0,181468  	0,091951  	-3051,676211  	25609,251373  	-0,018552  	-0,050011  	0,236242  	0,119706  	-3,964950  	5034,484830  	54821,420485  	7,951175  	-0,047961  
252,552000  	21,579622  	29,532876  	22,878096  	1256,670793  	70,033869  	62,115424  	0,006508  	0,006336  	0,003964  	0,004194  	0,004252  	-0,000000  	-0,000000  	25,515750  	23,184758  	23,967944  	24,064499  	27,091876  	25,953712  	27,175009  	27,056636  	30,213020  	29,405243  	32,196318  	56,006871  	25,047419  	23,909097  	26,483437  	61,106530  	0,163479  	0,082836  	-2754,818281  	25605,609383  	-0,018550  	-0,050003  	0,225542  	0,114284  	-3,787828  	5013,626488  	54963,645026  	7,971803  	-0,047954  
253,550000  	21,576030  	29,540537  	22,879508  	57,696365  	70,035489  	62,110980  	0,006493  	0,006349  	0,003963  	0,004250  	0,004209  	-0,000000  	-0,000000  	25,521263  	23,191235  	23,968498  	24,065847  	27,094537  	25,957297  	27,175073  	27,054987  	30,216261  	29,408983  	32,199883  	56,004524  	25,057161  	23,918499  	26,486975  	61,102977  	0,209099  	0,105952  	-3528,559249  	1892,045410  	-0,054030  	-0,050006  	0,191591  	0,097081  	-3,220114  	5041,591126  	54648,409577  	7,926082  	-0,047956  
254,554000  	21,569707  	29,538630  	22,879078  	1256,670793  	70,037046  	62,116511  	0,006497  	0,006345  	0,003963  	0,004218  	0,004257  	0,000000  	-0,000000  	25,531103  	23,183796  	23,966065  	24,071449  	27,093107  	25,955740  	27,183019  	27,060353  	30,210538  	29,405295  	32,191065  	56,001536  	25,058303  	23,910832  	26,478552  	61,106780  	0,183572  	0,093017  	-3099,505874  	25603,709999  	-0,018548  	-0,049999  	0,229682  	0,116382  	-3,858384  	5033,359283  	54721,894375  	7,936740  	-0,047951  
255,550000  	21,577627  	29,534384  	22,878618  	1256,670793  	70,032654  	62,108122  	0,006506  	0,006349  	0,003965  	0,004282  	0,004225  	0,000000  	-0,000000  	25,528741  	23,186003  	23,970924  	24,073057  	27,097998  	25,955710  	27,180034  	27,066137  	30,219885  	29,414310  	32,190502  	56,002674  	25,060144  	23,905915  	26,475857  	61,104739  	0,234849  	0,119000  	-3959,231921  	25601,621241  	-0,018547  	-0,049995  	0,204331  	0,103536  	-3,434242  	5042,334652  	54926,948524  	7,966480  	-0,047947  
256,552000  	21,573022  	29,527307  	22,878863  	1256,670793  	70,030038  	62,114833  	0,006502  	0,006342  	0,003962  	0,004243  	0,004216  	0,000000  	-0,000000  	25,538649  	23,194898  	23,970261  	24,075829  	27,097410  	25,960010  	27,182193  	27,067612  	30,215958  	29,415120  	32,197085  	56,006149  	25,063930  	23,910590  	26,486087  	61,091047  	0,203633  	0,103182  	-3431,905074  	25603,898852  	-0,018548  	-0,050000  	0,197376  	0,100012  	-3,313437  	5025,882284  	54842,794414  	7,954275  	-0,047951  
257,550000  	21,558196  	29,525861  	22,877635  	1256,670793  	70,030318  	62,117412  	0,006499  	0,006347  	0,003966  	0,004240  	0,004257  	-0,000001  	-0,000000  	25,534127  	23,196687  	23,969551  	24,076393  	27,095514  	25,958338  	27,180026  	27,068479  	30,222578  	29,423207  	32,206160  	56,006853  	25,077411  	23,894551  	26,488771  	61,101469  	0,201317  	0,102009  	-3398,593972  	25607,778687  	-0,018551  	-0,050008  	0,229613  	0,116347  	-3,853504  	5036,808083  	54769,952176  	7,943710  	-0,047958  
258,552000  	21,547882  	29,526046  	22,878433  	1256,670793  	70,030443  	62,124994  	0,006499  	0,006347  	0,003962  	0,004236  	0,004256  	-0,000000  	-0,000000  	25,545483  	23,190083  	23,985544  	24,091221  	27,108146  	25,972934  	27,194532  	27,078551  	30,229811  	29,420559  	32,210230  	56,010687  	25,080199  	23,901812  	26,491261  	61,111037  	0,197712  	0,100182  	-3342,135878  	25604,737801  	-0,018549  	-0,050002  	0,229165  	0,116120  	-3,842371  	5037,308247  	54765,800253  	7,943108  	-0,047953  
259,576000  	21,535450  	29,527338  	22,877328  	1256,670793  	70,028480  	62,113839  	0,006501  	0,006344  	0,003964  	0,004237  	0,004224  	-0,000000  	-0,000000  	25,532245  	23,205475  	23,965981  	24,081319  	27,101660  	25,968920  	27,183248  	27,070711  	30,239815  	29,422237  	32,206036  	56,011976  	25,070967  	23,882910  	26,489734  	61,105557  	0,198576  	0,100620  	-3362,522624  	25606,766801  	-0,018550  	-0,050006  	0,203605  	0,103168  	-3,417775  	5031,314056  	54815,143173  	7,950264  	-0,047957  
260,551000  	21,523847  	29,526415  	22,874441  	1256,670793  	70,029664  	62,103896  	0,006494  	0,006348  	0,003966  	0,004219  	0,004238  	-0,000000  	-0,000000  	25,531208  	23,188245  	23,966798  	24,074379  	27,099822  	25,965229  	27,193040  	27,071967  	30,217711  	29,418198  	32,191370  	56,008158  	25,073473  	23,877882  	26,478527  	61,097871  	0,184468  	0,093471  	-3127,797322  	25604,634953  	-0,018549  	-0,050001  	0,214763  	0,108822  	-3,610132  	5039,944191  	54662,284625  	7,928094  	-0,047952  
261,553000  	21,525044  	29,525800  	22,873182  	956,927186  	70,031720  	62,115610  	0,006500  	0,006341  	0,003964  	0,004257  	0,004242  	0,000001  	-0,000000  	25,533235  	23,183807  	23,963748  	24,079178  	27,091026  	25,963797  	27,179641  	27,057185  	30,222253  	29,404138  	32,188850  	55,995116  	25,071628  	23,870032  	26,475532  	61,095179  	0,214765  	0,108823  	-3640,692652  	22559,112837  	-0,022188  	-0,049992  	0,217606  	0,110263  	-3,653474  	5023,625531  	54783,114054  	7,945619  	-0,047945  
262,553000  	21,532350  	29,524384  	22,875209  	357,439972  	70,031346  	62,107034  	0,006505  	0,006356  	0,003965  	0,004232  	0,004221  	-0,000000  	-0,000000  	25,507655  	23,168596  	23,953273  	24,065601  	27,086769  	25,953714  	27,169127  	27,052044  	30,207873  	29,410695  	32,176360  	55,986310  	25,061268  	23,859661  	26,461648  	61,078640  	0,194971  	0,098793  	-3301,540233  	12603,030418  	-0,036551  	-0,050004  	0,200970  	0,101833  	-3,377659  	5055,866682  	54902,856074  	7,962986  	-0,047955  
263,552000  	21,552241  	29,519492  	22,874841  	1256,670793  	70,029477  	62,113249  	0,006497  	0,006341  	0,003963  	0,004233  	0,004263  	0,000001  	-0,000000  	25,529150  	23,183982  	23,978403  	24,074034  	27,095353  	25,957400  	27,191638  	27,063980  	30,225511  	29,406819  	32,203695  	56,009561  	25,084634  	23,881991  	26,478268  	61,098830  	0,195384  	0,099003  	-3298,262398  	25597,446442  	-0,018544  	-0,049985  	0,234617  	0,118882  	-3,939134  	5023,725281  	54718,836921  	7,936296  	-0,047939  
264,554000  	21,584104  	29,508539  	22,875393  	1256,670793  	70,031533  	62,108401  	0,006495  	0,006341  	0,003962  	0,004192  	0,004233  	0,000000  	-0,000000  	25,533663  	23,183663  	23,973707  	24,067086  	27,097522  	25,963756  	27,177951  	27,061379  	30,221027  	29,416757  	32,205395  	56,003386  	25,081309  	23,870036  	26,468295  	61,092634  	0,162256  	0,082216  	-2724,297729  	25601,379074  	-0,018547  	-0,049994  	0,210557  	0,106691  	-3,538251  	5023,938930  	54681,970953  	7,930949  	-0,047946  
265,551000  	21,595185  	29,505154  	22,875885  	1256,670793  	70,037669  	62,117381  	0,006505  	0,006343  	0,003964  	0,004274  	0,004266  	0,000000  	-0,000000  	25,530882  	23,191744  	23,979256  	24,079697  	27,102640  	25,967059  	27,187964  	27,061746  	30,224918  	29,415744  	32,201590  	56,001459  	25,092922  	23,868279  	26,464745  	61,100727  	0,228390  	0,115727  	-3827,702081  	25603,371220  	-0,018548  	-0,049998  	0,236659  	0,119917  	-3,975452  	5028,453851  	54899,622093  	7,962517  	-0,047950  
266,552000  	21,599237  	29,502447  	22,876437  	1256,670793  	70,040971  	62,112285  	0,006502  	0,006345  	0,003965  	0,004212  	0,004298  	0,000001  	-0,000000  	25,520269  	23,183843  	23,968040  	24,069480  	27,092451  	25,952173  	27,173831  	27,063675  	30,211784  	29,401057  	32,193996  	55,995445  	25,075609  	23,855085  	26,457258  	61,091065  	0,178108  	0,090249  	-2982,454571  	25601,157673  	-0,018546  	-0,049994  	0,261999  	0,132757  	-4,405795  	5032,471438  	54837,364434  	7,953487  	-0,047946  
267,552000  	21,624746  	29,505308  	22,876806  	357,439972  	70,038448  	62,108867  	0,006494  	0,006357  	0,003963  	0,004236  	0,004199  	-0,000001  	-0,000000  	25,527115  	23,187858  	23,972628  	24,072221  	27,090000  	25,955053  	27,181155  	27,065147  	30,218550  	29,403068  	32,197544  	55,996075  	25,086164  	23,856739  	26,468831  	61,092349  	0,197769  	0,100211  	-3302,184599  	12605,503802  	-0,036559  	-0,050015  	0,184072  	0,093271  	-3,095723  	5057,625393  	54671,266336  	7,929397  	-0,047964  
268,551000  	21,638314  	29,510908  	22,875639  	-242,047242  	70,037077  	62,112223  	0,006503  	0,006343  	0,003966  	0,004247  	0,004239  	0,000001  	-0,000000  	25,529491  	23,192290  	23,974781  	24,072822  	27,096622  	25,961742  	27,182367  	27,063868  	30,224821  	29,410006  	32,190691  	55,996311  	25,089948  	23,852049  	26,481898  	61,095169  	0,206437  	0,104603  	-3443,422544  	-27025,672455  	-0,103508  	-0,049990  	0,215867  	0,109381  	-3,628274  	5029,149271  	54847,264086  	7,954923  	-0,047943  
269,553000  	21,612621  	29,523215  	22,876284  	1256,670793  	70,040877  	62,117039  	0,006504  	0,006349  	0,003960  	0,004221  	0,004243  	-0,000000  	-0,000000  	25,537023  	23,193305  	23,970962  	24,076622  	27,104066  	25,956854  	27,184326  	27,071911  	30,222622  	29,412077  	32,193323  	56,007791  	25,088604  	23,847600  	26,475653  	61,095324  	0,185746  	0,094119  	-3113,252466  	25604,203870  	-0,018549  	-0,050000  	0,218637  	0,110785  	-3,674368  	5040,818595  	54878,735379  	7,959488  	-0,047952  
270,552000  	21,608691  	29,533676  	22,875363  	1256,670793  	70,045986  	62,111571  	0,006497  	0,006348  	0,003962  	0,004293  	0,004218  	-0,000001  	-0,000000  	25,527976  	23,188157  	23,964534  	24,066427  	27,095226  	25,959757  	27,181848  	27,064544  	30,217701  	29,404506  	32,185564  	55,998303  	25,085516  	23,839558  	26,471832  	61,089663  	0,244331  	0,123805  	-4102,642279  	25607,573125  	-0,018551  	-0,050008  	0,199270  	0,100972  	-3,353362  	5038,719602  	54733,248613  	7,938387  	-0,047958  
271,551000  	21,617624  	29,546876  	22,875915  	1256,670793  	70,047076  	62,122539  	0,006497  	0,006345  	0,003966  	0,004259  	0,004223  	-0,000000  	-0,000000  	25,529628  	23,191421  	23,969899  	24,072678  	27,102730  	25,964617  	27,186813  	27,066633  	30,221436  	29,410946  	32,193567  	56,000870  	25,090860  	23,838535  	26,476589  	61,096343  	0,216786  	0,109847  	-3642,084107  	25604,487709  	-0,018549  	-0,050001  	0,202672  	0,102695  	-3,406361  	5031,998156  	54730,318259  	7,937962  	-0,047952  
272,682000  	21,601601  	29,554199  	22,874503  	1256,670793  	70,048633  	62,124155  	0,006502  	0,006351  	0,003965  	0,004213  	0,004202  	0,000000  	-0,000000  	25,535281  	23,188213  	23,970229  	24,079269  	27,103059  	25,963962  	27,185293  	27,064882  	30,217890  	29,409768  	32,199208  	56,003601  	25,091484  	23,841875  	26,468846  	61,097631  	0,179020  	0,090711  	-3016,459944  	25603,948591  	-0,018548  	-0,050000  	0,186195  	0,094346  	-3,129413  	5045,227399  	54834,907173  	7,953131  	-0,047951  
273,551000  	21,603626  	29,549829  	22,874779  	956,927186  	70,051437  	62,125678  	0,006501  	0,006335  	0,003966  	0,004229  	0,004286  	-0,000001  	-0,000000  	25,526257  	23,184512  	23,965737  	24,068129  	27,094345  	25,958739  	27,176550  	27,056563  	30,214352  	29,397893  	32,190920  	55,992569  	25,085816  	23,843127  	26,463425  	61,091032  	0,191902  	0,097238  	-3230,908344  	22566,502260  	-0,022196  	-0,050010  	0,252914  	0,128153  	-4,251455  	5010,509480  	54817,833449  	7,950655  	-0,047960  
274,556000  	21,609582  	29,551922  	22,872691  	-242,047242  	70,053181  	62,118220  	0,006494  	0,006350  	0,003962  	0,004252  	0,004203  	0,000001  	-0,000000  	25,521358  	23,188475  	23,963865  	24,063708  	27,094356  	25,957162  	27,183703  	27,059116  	30,219982  	29,402425  	32,192489  	55,989467  	25,092376  	23,835509  	26,468429  	61,091168  	0,211136  	0,106984  	-3553,016621  	-27026,730916  	-0,103514  	-0,049992  	0,186784  	0,094645  	-3,143452  	5043,341348  	54664,614786  	7,928432  	-0,047945  
275,551000  	21,600096  	29,554137  	22,872691  	657,183579  	70,057791  	62,134844  	0,006501  	0,006345  	0,003965  	0,004232  	0,004214  	-0,000000  	-0,000000  	25,532417  	23,193254  	23,968034  	24,068920  	27,100125  	25,961422  	27,186660  	27,068762  	30,221015  	29,413731  	32,200274  	55,995373  	25,103442  	23,838414  	26,470774  	61,095857  	0,194538  	0,098574  	-3278,525552  	18544,935166  	-0,027617  	-0,050003  	0,195412  	0,099017  	-3,283696  	5032,314385  	54814,853668  	7,950222  	-0,047954  
276,556000  	21,579468  	29,554014  	22,874656  	1256,670793  	70,060096  	62,135341  	0,006502  	0,006339  	0,003962  	0,004232  	0,004298  	0,000001  	-0,000000  	25,537836  	23,196319  	23,974958  	24,070858  	27,102204  	25,963833  	27,176455  	27,068502  	30,220591  	29,416486  	32,201351  	55,994614  	25,099250  	23,850953  	26,470273  	61,095710  	0,194800  	0,098707  	-3291,408520  	25600,744889  	-0,018546  	-0,049993  	0,262570  	0,133046  	-4,413223  	5020,340151  	54835,224922  	7,953177  	-0,047945  
277,552000  	21,574066  	29,552752  	22,874104  	1256,670793  	70,059161  	62,140872  	0,006497  	0,006339  	0,003962  	0,004203  	0,004258  	-0,000000  	-0,000000  	25,532821  	23,197420  	23,976673  	24,076201  	27,101262  	25,969910  	27,181171  	27,063526  	30,227281  	29,420011  	32,204361  	55,992252  	25,093590  	23,853792  	26,471060  	61,096073  	0,171223  	0,086760  	-2894,550449  	25605,002170  	-0,018549  	-0,050002  	0,230408  	0,116750  	-3,869493  	5020,661332  	54717,318786  	7,936076  	-0,047953  
278,554000  	21,563384  	29,552568  	22,876130  	1256,670793  	70,055112  	62,130059  	0,006494  	0,006352  	0,003966  	0,004244  	0,004208  	-0,000000  	-0,000000  	25,534510  	23,196008  	23,976257  	24,076450  	27,104088  	25,971967  	27,183815  	27,066500  	30,226059  	29,414893  	32,203643  	55,994929  	25,092793  	23,865481  	26,469528  	61,099893  	0,204704  	0,103725  	-3465,102234  	25606,548827  	-0,018550  	-0,050005  	0,191061  	0,096812  	-3,211436  	5048,146322  	54652,038979  	7,926608  	-0,047956  
279,552000  	21,559147  	29,550445  	22,876867  	1256,670793  	70,051997  	62,137143  	0,006501  	0,006338  	0,003963  	0,004222  	0,004282  	0,000001  	-0,000000  	25,537456  	23,193545  	23,973672  	24,071427  	27,099154  	25,959039  	27,183065  	27,063969  	30,221809  	29,405660  	32,195872  	55,992248  	25,080745  	23,874338  	26,464865  	61,094310  	0,186762  	0,094634  	-3162,232376  	25601,012464  	-0,018546  	-0,049993  	0,249568  	0,126458  	-4,189443  	5018,216398  	54805,349437  	7,948844  	-0,047946  
280,552000  	21,555709  	29,545153  	22,879140  	1256,670793  	70,053056  	62,127946  	0,006500  	0,006339  	0,003962  	0,004214  	0,004216  	-0,000001  	-0,000000  	25,548971  	23,208023  	23,986676  	24,089970  	27,105821  	25,974807  	27,201522  	27,078316  	30,237216  	29,426095  	32,208214  	55,995350  	25,085310  	23,888273  	26,473626  	61,103543  	0,180326  	0,091372  	-3052,545967  	25609,293537  	-0,018552  	-0,050012  	0,197363  	0,100005  	-3,317371  	5020,599784  	54783,064626  	7,945612  	-0,047961  
281,553000  	21,558227  	29,539214  	22,881381  	57,696365  	70,057168  	62,132296  	0,006497  	0,006346  	0,003964  	0,004259  	0,004252  	0,000001  	-0,000000  	25,552816  	23,209390  	23,978397  	24,087131  	27,108671  	25,972585  	27,202000  	27,079205  	30,240397  	29,432311  	32,216144  	56,002837  	25,081484  	23,890936  	26,474780  	61,109299  	0,216284  	0,109593  	-3657,372879  	1891,461405  	-0,054016  	-0,049991  	0,226051  	0,114542  	-3,799467  	5035,265850  	54726,745346  	7,937443  	-0,047944  
282,553000  	21,550307  	29,530292  	22,882978  	1256,670793  	70,056047  	62,122042  	0,006501  	0,006345  	0,003964  	0,004170  	0,004280  	-0,000000  	-0,000000  	25,545223  	23,214423  	23,981127  	24,089750  	27,117065  	25,978859  	27,203184  	27,081485  	30,229597  	29,424662  	32,215517  	56,002473  	25,070446  	23,903123  	26,477283  	61,115002  	0,144539  	0,073239  	-2443,857797  	25604,811445  	-0,018549  	-0,050002  	0,248183  	0,125756  	-4,176267  	5033,271559  	54819,648150  	7,950918  	-0,047953  
283,553000  	21,518905  	29,527153  	22,883254  	357,439972  	70,052745  	62,137920  	0,006504  	0,006340  	0,003964  	0,004247  	0,004233  	0,000001  	-0,000000  	25,533285  	23,205703  	23,976659  	24,084313  	27,108025  	25,974586  	27,196596  	27,074212  	30,233197  	29,418453  	32,210810  	55,998258  	25,056159  	23,901482  	26,465668  	61,091655  	0,206515  	0,104643  	-3504,108674  	12600,253175  	-0,036544  	-0,049993  	0,210603  	0,106714  	-3,535329  	5022,809138  	54877,810376  	7,959353  	-0,047946  
284,579000  	21,490297  	29,527092  	22,882824  	-242,047242  	70,051810  	62,136429  	0,006494  	0,006348  	0,003964  	0,004229  	0,004256  	-0,000000  	-0,000000  	25,537132  	23,202313  	23,975187  	24,079388  	27,108288  	25,969232  	27,192187  	27,074973  	30,229806  	29,420278  	32,215474  	56,002530  	25,057792  	23,912038  	26,463078  	61,089868  	0,192551  	0,097567  	-3278,831843  	-27031,718150  	-0,103529  	-0,050002  	0,228982  	0,116027  	-3,844121  	5038,710405  	54653,105204  	7,926763  	-0,047953  
285,553000  	21,504355  	29,524292  	22,882702  	1256,670793  	70,055237  	62,129033  	0,006494  	0,006334  	0,003964  	0,004224  	0,004251  	-0,000000  	-0,000000  	25,530041  	23,198506  	23,980804  	24,078457  	27,097130  	25,961821  	27,179113  	27,067176  	30,218947  	29,417763  	32,204763  	55,986421  	25,049250  	23,904309  	26,459588  	61,092679  	0,188101  	0,095312  	-3196,331618  	25605,189788  	-0,018549  	-0,050003  	0,225430  	0,114227  	-3,789663  	5009,832454  	54668,639609  	7,929016  	-0,047954  
286,557000  	21,521790  	29,521154  	22,884237  	1256,670793  	70,056047  	62,127604  	0,006504  	0,006356  	0,003964  	0,004234  	0,004237  	0,000000  	-0,000000  	25,529982  	23,201109  	23,969920  	24,078655  	27,100864  	25,974373  	27,187673  	27,070246  	30,234128  	29,420386  	32,203813  	55,990239  	25,051173  	23,931058  	26,460402  	61,093903  	0,196254  	0,099444  	-3326,315243  	25602,704352  	-0,018548  	-0,049998  	0,214147  	0,108510  	-3,601008  	5056,064059  	54876,977167  	7,959233  	-0,047949  
287,556000  	21,518752  	29,507401  	22,884606  	1256,670793  	70,052402  	62,138790  	0,006495  	0,006330  	0,003964  	0,004208  	0,004248  	-0,000001  	-0,000000  	25,538197  	23,200331  	23,971245  	24,082519  	27,098501  	25,968066  	27,190120  	27,071107  	30,228100  	29,417798  	32,210578  	55,995305  	25,056599  	23,952190  	26,472731  	61,097611  	0,175238  	0,088794  	-2966,129929  	25606,740416  	-0,018551  	-0,050006  	0,222659  	0,112823  	-3,737137  	4999,979851  	54684,399969  	7,931302  	-0,047957  
288,556000  	21,509236  	29,495340  	22,884053  	1256,670793  	70,045986  	62,123130  	0,006495  	0,006343  	0,003963  	0,004268  	0,004245  	-0,000000  	-0,000000  	25,540422  	23,202339  	23,976797  	24,086076  	27,105806  	25,975600  	27,185049  	27,077527  	30,228992  	29,423323  	32,210728  	55,992430  	25,057636  	23,969407  	26,458067  	61,093235  	0,224137  	0,113572  	-3792,604576  	25606,435876  	-0,018550  	-0,050006  	0,220288  	0,111622  	-3,701662  	5027,503044  	54674,429705  	7,929856  	-0,047956  
289,553000  	21,509052  	29,492078  	22,884145  	956,927186  	70,040846  	62,107718  	0,006504  	0,006353  	0,003963  	0,004270  	0,004213  	0,000000  	-0,000000  	25,538527  	23,205107  	23,983825  	24,074968  	27,109075  	25,970111  	27,190901  	27,074194  	30,219950  	29,418059  	32,219165  	55,997482  	25,049192  	24,002834  	26,456609  	61,084177  	0,225643  	0,114335  	-3816,609539  	22559,746592  	-0,022189  	-0,049995  	0,194774  	0,098693  	-3,277163  	5049,042656  	54883,353334  	7,960157  	-0,047947  
290,555000  	21,511446  	29,494478  	22,883715  	357,439972  	70,035862  	62,113062  	0,006499  	0,006340  	0,003963  	0,004229  	0,004282  	-0,000001  	-0,000000  	25,531820  	23,202858  	23,976643  	24,079827  	27,107254  	25,968550  	27,190981  	27,076664  	30,228196  	29,428847  	32,200035  	55,994860  	25,057075  	24,013495  	26,464131  	61,093173  	0,192085  	0,097331  	-3248,996992  	12603,889050  	-0,036555  	-0,050010  	0,249760  	0,126555  	-4,196864  	5022,710096  	54770,241681  	7,943752  	-0,047960  
291,553000  	21,527377  	29,492817  	22,882241  	357,439972  	70,036641  	62,109955  	0,006492  	0,006346  	0,003964  	0,004237  	0,004240  	0,000001  	-0,000000  	25,542314  	23,205972  	23,985963  	24,088288  	27,108619  	25,977269  	27,194166  	27,078112  	30,232036  	29,428748  	32,216155  	55,997433  	25,077593  	24,043230  	26,472682  	61,102014  	0,198452  	0,100557  	-3349,289296  	12599,985643  	-0,036543  	-0,049992  	0,216358  	0,109630  	-3,637379  	5034,890196  	54613,421859  	7,921007  	-0,047944  
292,555000  	21,527991  	29,492632  	22,881934  	956,927186  	70,040504  	62,118034  	0,006499  	0,006340  	0,003961  	0,004256  	0,004198  	-0,000000  	-0,000000  	25,542968  	23,201785  	23,981661  	24,077929  	27,109117  	25,979288  	27,191983  	27,068187  	30,233818  	29,420719  	32,212005  	56,003362  	25,076072  	24,058994  	26,467257  	61,087791  	0,214143  	0,108508  	-3613,753566  	22564,310482  	-0,022194  	-0,050006  	0,182728  	0,092589  	-3,070354  	5022,243889  	54780,840382  	7,945289  	-0,047956  
293,566000  	21,527101  	29,489648  	22,881903  	57,696365  	70,041189  	62,115983  	0,006504  	0,006343  	0,003966  	0,004208  	0,004236  	0,000000  	-0,000000  	25,545688  	23,207718  	23,984828  	24,084272  	27,109338  	25,976337  	27,192452  	27,069678  	30,238152  	29,420535  	32,218502  	55,997767  	25,082207  	24,083399  	26,473494  	61,096567  	0,175357  	0,088855  	-2958,449060  	1891,515354  	-0,054018  	-0,049994  	0,213159  	0,108009  	-3,582924  	5027,888602  	54867,578852  	7,957870  	-0,047946  
294,553000  	21,521146  	29,486632  	22,881166  	657,183579  	70,040628  	62,114802  	0,006493  	0,006349  	0,003964  	0,004233  	0,004244  	-0,000001  	-0,000000  	25,548824  	23,204151  	23,983525  	24,091556  	27,106768  	25,978034  	27,194147  	27,078102  	30,240106  	29,424917  	32,217431  	55,997579  	25,083288  	24,103484  	26,469598  	61,097080  	0,195506  	0,099064  	-3299,593064  	18546,879444  	-0,027621  	-0,050010  	0,219144  	0,111042  	-3,683808  	5040,585138  	54633,658953  	7,923942  	-0,047960  
295,553000  	21,522251  	29,490601  	22,880061  	-242,047242  	70,038105  	62,107314  	0,006498  	0,006353  	0,003964  	0,004207  	0,004274  	-0,000000  	-0,000000  	25,543376  	23,210983  	23,979222  	24,088150  	27,103794  	25,974349  	27,195116  	27,080341  	30,240767  	29,425082  	32,217611  	55,997207  	25,076909  	24,121089  	26,477518  	61,102049  	0,174034  	0,088184  	-2938,268607  	-27033,307009  	-0,103536  	-0,050005  	0,243129  	0,123195  	-4,089557  	5050,134953  	54752,377114  	7,941161  	-0,047956  
296,556000  	21,538888  	29,491709  	22,881780  	-242,047242  	70,034803  	62,111850  	0,006503  	0,006338  	0,003962  	0,004236  	0,004245  	-0,000000  	-0,000000  	25,543329  	23,218772  	23,985991  	24,083542  	27,110986  	25,977695  	27,196911  	27,080387  	30,243164  	29,424614  	32,222438  	55,999499  	25,083393  	24,144937  	26,483993  	61,111442  	0,197474  	0,100061  	-3327,501595  	-27033,232278  	-0,103535  	-0,050005  	0,220550  	0,111754  	-3,706099  	5017,218899  	54856,492935  	7,956262  	-0,047956  
297,553000  	21,562463  	29,490694  	22,882087  	1256,670793  	70,039226  	62,109706  	0,006500  	0,006339  	0,003962  	0,004266  	0,004226  	0,000000  	-0,000000  	25,538794  	23,204995  	23,977789  	24,083014  	27,104658  	25,974654  	27,192189  	27,074778  	30,234927  	29,420589  	32,218601  	55,995354  	25,073579  	24,139603  	26,476514  	61,097615  	0,221755  	0,112365  	-3725,095806  	25601,337937  	-0,018547  	-0,049994  	0,204963  	0,103856  	-3,447033  	5020,425045  	54788,261591  	7,946366  	-0,047947  
298,556000  	21,578547  	29,491740  	22,882149  	1256,670793  	70,039725  	62,112068  	0,006497  	0,006351  	0,003963  	0,004232  	0,004278  	0,000000  	-0,000000  	25,542662  	23,194862  	23,968807  	24,078816  	27,104468  	25,962002  	27,181854  	27,071033  	30,227944  	29,419756  	32,211921  	55,989607  	25,067537  	24,130693  	26,467420  	61,088597  	0,194255  	0,098431  	-3256,954250  	25601,982805  	-0,018547  	-0,049996  	0,246745  	0,125028  	-4,148747  	5044,631730  	54727,981037  	7,937623  	-0,047948  
299,554000  	21,581955  	29,493586  	22,881596  	1256,670793  	70,034679  	62,110390  	0,006504  	0,006336  	0,003964  	0,004228  	0,004230  	0,000000  	-0,000000  	25,541061  	23,200355  	23,972284  	24,074619  	27,108064  	25,958927  	27,184371  	27,068082  	30,229647  	29,420376  	32,209627  	55,994282  	25,071363  	24,127329  	26,468118  	61,090165  	0,191134  	0,096849  	-3203,985858  	25603,061984  	-0,018548  	-0,049998  	0,208175  	0,105484  	-3,498749  	5014,263189  	54873,418376  	7,958716  	-0,047950  
300,555000  	21,563107  	29,499062  	22,881166  	57,696365  	70,032374  	62,130401  	0,006504  	0,006345  	0,003962  	0,004266  	0,004183  	0,000000  	-0,000000  	25,538440  	23,203938  	23,978560  	24,080119  	27,111780  	25,969139  	27,193466  	27,073345  	30,231920  	29,420225  	32,213852  	56,002747  	25,072517  	24,119177  	26,475683  	61,096456  	0,222486  	0,112735  	-3741,009824  	1891,603506  	-0,054020  	-0,049995  	0,171239  	0,086768  	-2,869862  	5032,513885  	54880,571264  	7,959754  	-0,047947  
301,553000  	21,546409  	29,503216  	22,879262  	1256,670793  	70,028107  	62,128536  	0,006494  	0,006340  	0,003964  	0,004217  	0,004250  	0,000000  	-0,000000  	25,540336  	23,199166  	23,977642  	24,081159  	27,113756  	25,970591  	27,191270  	27,079695  	30,229676  	29,420984  	32,212117  	55,994936  	25,067569  	24,106967  	26,473616  	61,096830  	0,182556  	0,092502  	-3077,675711  	25603,280272  	-0,018548  	-0,049998  	0,224218  	0,113613  	-3,756623  	5021,677932  	54667,319184  	7,928824  	-0,047950  
302,556000  	21,535112  	29,508570  	22,874963  	657,183579  	70,025116  	62,126299  	0,006500  	0,006343  	0,003967  	0,004240  	0,004243  	-0,000000  	-0,000000  	25,530535  	23,193947  	23,973096  	24,073936  	27,103939  	25,963911  	27,181872  	27,072769  	30,224661  	29,417344  	32,202820  	55,986115  	25,060921  	24,086720  	26,462351  	61,086289  	0,201257  	0,101978  	-3400,047003  	18544,352096  	-0,027617  	-0,050002  	0,219012  	0,110975  	-3,669049  	5028,914399  	54791,255494  	7,946800  	-0,047953  
