07/01/2020 15:55:45
Tempo T_f_e T_f_s AR AR T_q_e T_q_s Corrente_P_f Corrente_P_q Corrente_P_RESERVA Corrente_eletromag_f Corrente_eletromag_q AR AR T_1 T_2 T_3 T_4 T_5 T_6 T_7 T_8 T_9 T_10 T_11 T_12 T_13 T_14 T_15 T_16 Velocidade_f_(m/s) Vazao_f_(L/s) q_f_(W) AR AR AR Velocidade_q_(m/s) Vazao_q_(L/s) q_q_(W) DeltaP_q_(Pa) DeltaP_f_(Pa) DeltaP_f_(Psi) AR
0,006000  	9,935326  	64,045595  	1256,818530  	956,927186  	80,223759  	74,844765  	0,004010  	0,006180  	0,003959  	0,003943  	0,004241  	0,000000  	-0,000000  	24,997519  	19,661505  	21,567844  	32,435662  	47,337929  	45,189944  	46,963936  	52,660567  	63,387006  	61,925935  	64,413905  	71,196411  	25,711462  	23,162124  	19,452993  	73,074139  	-0,039643  	-0,020087  	4550,850954  	-4420,514146  	-0,012270  	-0,049998  	0,216888  	0,109899  	-2,478713  	4677,570469  	1145,326342  	0,166116  	-0,047950  
2,591000  	9,933796  	64,050818  	657,272221  	357,439972  	80,223509  	74,848446  	0,004003  	0,006071  	0,003961  	0,003991  	0,004215  	0,000001  	-0,000000  	24,996237  	19,664443  	21,575579  	32,426168  	47,340062  	45,187597  	46,975923  	52,654906  	63,386968  	61,920515  	64,414903  	71,210513  	25,725323  	23,176904  	19,451577  	73,076210  	-0,000768  	-0,000389  	88,127689  	-7102,647324  	-0,021693  	-0,049993  	0,196160  	0,099396  	-2,240181  	4441,674676  	1001,555421  	0,145263  	-0,047945  
3,590000  	9,933062  	64,047740  	657,272221  	1256,670793  	80,221478  	74,860267  	0,004008  	0,006041  	0,003964  	0,003951  	0,004243  	0,000001  	-0,000000  	24,990933  	19,659930  	21,568195  	32,429733  	47,328459  	45,184428  	46,980430  	52,654213  	63,384449  	61,922722  	64,422398  	71,189514  	25,743322  	23,193494  	19,450485  	73,059035  	-0,032869  	-0,016655  	3773,507025  	9719,792373  	-0,013762  	-0,049984  	0,218620  	0,110776  	-2,490245  	4377,399657  	1098,129994  	0,159270  	-0,047938  
4,594000  	9,932389  	64,041833  	1256,818530  	57,696365  	80,215354  	74,863262  	0,004012  	0,006020  	0,003961  	0,004027  	0,004145  	0,000000  	-0,000000  	25,001192  	19,663768  	21,563260  	32,442988  	47,340784  	45,187109  	46,981932  	52,660925  	63,385819  	61,921168  	64,432084  	71,197449  	25,749467  	23,208876  	19,454031  	73,066558  	0,028278  	0,014329  	-3246,152811  	-24490,782294  	-0,018198  	-0,049994  	0,140700  	0,071294  	-1,599952  	4331,426977  	1183,922278  	0,171713  	-0,047946  
5,591000  	9,931777  	64,046527  	57,725912  	1256,670793  	80,213355  	74,848633  	0,004009  	0,006142  	0,003960  	0,004021  	0,004230  	0,000002  	-0,000000  	24,987030  	19,664416  	21,562798  	32,428513  	47,335124  	45,184726  	46,968098  	52,646065  	63,381444  	61,912377  	64,420636  	71,192892  	25,753126  	23,227015  	19,441801  	73,071104  	0,023321  	0,011817  	-2677,320616  	24478,831463  	-0,018192  	-0,049972  	0,208179  	0,105486  	-2,372864  	4595,374425  	1126,790972  	0,163427  	-0,047927  
6,594000  	9,929942  	64,042424  	657,272221  	1256,670793  	80,215167  	74,820248  	0,004010  	0,006159  	0,003961  	0,004042  	0,004292  	0,000001  	-0,000001  	24,995707  	19,666498  	21,565346  	32,433417  	47,337975  	45,183318  	46,973061  	52,654169  	63,384092  	61,922885  	64,420709  	71,189778  	25,759581  	23,235444  	19,442878  	73,062584  	0,040284  	0,020412  	-4624,593756  	9721,264036  	-0,013764  	-0,049992  	0,257238  	0,130344  	-2,948540  	4630,767248  	1137,446162  	0,164973  	-0,047945  
7,595000  	9,929667  	64,044009  	657,272221  	357,439972  	80,215354  	74,795669  	0,004010  	0,006101  	0,003964  	0,004044  	0,004182  	0,000001  	-0,000000  	24,997578  	19,660155  	21,571528  	32,424200  	47,338454  	45,178288  	46,971023  	52,650195  	63,376891  	61,915448  	64,425671  	71,192254  	25,759208  	23,246871  	19,444190  	73,062589  	0,042409  	0,021489  	-4868,668634  	-7101,355171  	-0,021689  	-0,049983  	0,170474  	0,086380  	-1,962989  	4506,563051  	1131,592516  	0,164124  	-0,047937  
8,619000  	9,928994  	64,052652  	1256,818530  	956,927186  	80,212542  	74,778077  	0,004004  	0,005955  	0,003963  	0,004030  	0,004214  	-0,000001  	-0,000000  	24,988349  	19,663564  	21,567933  	32,431361  	47,337112  	45,183033  	46,969519  	52,657292  	63,381263  	61,918422  	64,427600  	71,196007  	25,768827  	23,253795  	19,446909  	73,065161  	0,030932  	0,015674  	-3551,763618  	-4421,259677  	-0,012272  	-0,050008  	0,196100  	0,099365  	-2,264222  	4192,674858  	1008,411743  	0,146258  	-0,047958  
9,594000  	9,928015  	64,056227  	57,725912  	1256,670793  	80,209480  	74,775020  	0,004006  	0,005996  	0,003963  	0,004090  	0,004152  	0,000001  	-0,000000  	24,991006  	19,663368  	21,556394  	32,435192  	47,333260  	45,185623  	46,968496  	52,657952  	63,380278  	61,916881  	64,420968  	71,197566  	25,756344  	23,249287  	19,447606  	73,055844  	0,079292  	0,040178  	-9105,382275  	24484,986664  	-0,018197  	-0,049986  	0,146986  	0,074479  	-1,697132  	4280,403131  	1047,501955  	0,151927  	-0,047939  
10,595000  	9,927953  	64,055978  	1256,818530  	1256,670793  	80,208418  	74,763417  	0,004006  	0,006104  	0,003961  	0,003950  	0,004286  	0,000002  	-0,000000  	24,998613  	19,660184  	21,558313  	32,435479  	47,334123  	45,182801  	46,969948  	52,662488  	63,381850  	61,920463  	64,427354  	71,199933  	25,764683  	23,241307  	19,448945  	73,064297  	-0,034007  	-0,017232  	3905,108993  	-1,992639  	-0,011063  	-0,049974  	0,252691  	0,128040  	-2,923285  	4513,031231  	1048,342225  	0,152049  	-0,047929  
11,592000  	9,927036  	64,057004  	1256,818530  	1256,670793  	80,207574  	74,749880  	0,004008  	0,006255  	0,003961  	0,004004  	0,004308  	-0,000002  	-0,000000  	24,996050  	19,660724  	21,564040  	32,436339  	47,337332  	45,182567  	46,965345  	52,666281  	63,379733  	61,925073  	64,431487  	71,199333  	25,767440  	23,232787  	19,448463  	73,068021  	0,010166  	0,005151  	-1167,478438  	-1,994324  	-0,011073  	-0,050021  	0,270578  	0,137104  	-3,137503  	4838,143057  	1101,385158  	0,159742  	-0,047970  
12,594000  	9,926363  	64,050351  	1256,818530  	1256,670793  	80,208512  	74,749880  	0,004009  	0,006164  	0,003960  	0,004041  	0,004199  	0,000004  	-0,000000  	24,993703  	19,666505  	21,566841  	32,437207  	47,338749  	45,185880  	46,963315  	52,664899  	63,379667  	61,922155  	64,429641  	71,196004  	25,764029  	23,217152  	19,447333  	73,064567  	0,039541  	0,020036  	-4540,253341  	-1,991687  	-0,011058  	-0,049947  	0,184171  	0,093321  	-2,135927  	4641,771572  	1126,882766  	0,163441  	-0,047906  
13,665000  	9,925996  	64,041056  	-242,047242  	956,927186  	80,214230  	74,737341  	0,004008  	0,006167  	0,003963  	0,004026  	0,004237  	0,000004  	-0,000000  	24,994466  	19,672796  	21,567880  	32,437529  	47,345218  	45,187154  	46,958797  	52,670560  	63,385157  	61,923565  	64,434156  	71,195669  	25,772130  	23,206900  	19,447792  	73,071634  	0,028101  	0,014239  	-3226,117951  	34161,174186  	-0,026828  	-0,049947  	0,213795  	0,108331  	-2,487784  	4649,627054  	1102,762072  	0,159942  	-0,047906  
14,595000  	9,925445  	64,041367  	-242,047242  	357,439972  	80,215417  	74,751938  	0,004008  	0,006235  	0,003961  	0,003976  	0,004222  	0,000001  	-0,000000  	24,992807  	19,667903  	21,568299  	32,438604  	47,343240  	45,185525  	46,961948  	52,674754  	63,384487  	61,926232  	64,431641  	71,199066  	25,775185  	23,197099  	19,443189  	73,079434  	-0,013097  	-0,006636  	1503,592751  	30934,993782  	-0,051169  	-0,049986  	0,202232  	0,102473  	-2,347480  	4795,784012  	1093,759178  	0,158636  	-0,047940  
15,599000  	9,925262  	64,045657  	657,272221  	357,439972  	80,214729  	74,769218  	0,004006  	0,006171  	0,003960  	0,003916  	0,004211  	0,000004  	-0,000001  	24,987367  	19,661576  	21,564253  	32,437430  	47,337613  	45,183744  	46,964268  	52,666299  	63,378469  	61,923271  	64,426523  	71,197617  	25,772679  	23,177776  	19,445035  	73,076732  	-0,061199  	-0,031010  	7026,708507  	-7097,607200  	-0,021677  	-0,049953  	0,193130  	0,097860  	-2,234452  	4657,070803  	1062,302007  	0,154074  	-0,047911  
16,593000  	9,924711  	64,043481  	1256,818530  	956,927186  	80,213855  	74,785188  	0,004009  	0,006191  	0,003956  	0,004016  	0,004298  	0,000000  	-0,000000  	24,989897  	19,667103  	21,564685  	32,440276  	47,339138  	45,188439  	46,961755  	52,665872  	63,382331  	61,926954  	64,429037  	71,195275  	25,778104  	23,167282  	19,451863  	73,078240  	0,019321  	0,009790  	-2218,262921  	-4420,433216  	-0,012270  	-0,049997  	0,262536  	0,133029  	-3,028071  	4701,041410  	1116,771281  	0,161974  	-0,047949  
17,595000  	9,924497  	64,045843  	1256,818530  	1256,670793  	80,215948  	74,796854  	0,004008  	0,006200  	0,003963  	0,003980  	0,004220  	0,000001  	-0,000001  	25,001817  	19,673072  	21,574914  	32,449412  	47,338878  	45,193240  	46,967499  	52,677672  	63,387507  	61,935928  	64,431966  	71,201046  	25,783495  	23,165172  	19,449496  	73,084574  	-0,009642  	-0,004886  	1107,088914  	-1,993200  	-0,011066  	-0,049990  	0,200555  	0,101623  	-2,309115  	4719,764680  	1095,806895  	0,158933  	-0,047943  
18,600000  	9,924191  	64,036952  	1256,818530  	1256,670793  	80,216323  	74,807709  	0,004013  	0,006205  	0,003960  	0,004137  	0,004219  	0,000001  	-0,000000  	25,000852  	19,675291  	21,574403  	32,447441  	47,340116  	45,187509  	46,959460  	52,675444  	63,380412  	61,933639  	64,435834  	71,199539  	25,784818  	23,154078  	19,454164  	73,082565  	0,117314  	0,059444  	-13467,708523  	-1,993263  	-0,011067  	-0,049992  	0,199580  	0,101129  	-2,293451  	4729,986569  	1198,355153  	0,173807  	-0,047944  
19,597000  	9,923916  	64,031450  	1256,818530  	1256,670793  	80,220353  	74,826580  	0,004010  	0,006167  	0,003964  	0,004024  	0,004185  	0,000001  	-0,000000  	24,994857  	19,673754  	21,566767  	32,442988  	47,329849  	45,188036  	46,956919  	52,667432  	63,381658  	61,925124  	64,427330  	71,191493  	25,786333  	23,145902  	19,453314  	73,085074  	0,025943  	0,013145  	-2977,972966  	-1,993146  	-0,011066  	-0,049988  	0,172531  	0,087423  	-1,977184  	4647,794769  	1136,005699  	0,164764  	-0,047941  
20,598000  	9,923548  	64,032818  	57,725912  	57,696365  	80,230852  	74,835626  	0,004010  	0,006151  	0,003960  	0,003974  	0,004266  	-0,000000  	-0,000001  	24,996300  	19,669587  	21,565466  	32,445823  	47,329500  	45,188747  	46,958389  	52,669571  	63,384863  	61,925909  	64,430512  	71,199720  	25,795525  	23,139202  	19,447427  	73,085513  	-0,014547  	-0,007371  	1669,927765  	-1,525033  	-0,051180  	-0,050000  	0,236703  	0,119939  	-2,713327  	4613,816838  	1140,369455  	0,165397  	-0,047952  
21,597000  	9,922967  	64,026973  	1256,818530  	1256,670793  	80,238194  	74,842519  	0,004011  	0,006202  	0,003962  	0,004072  	0,004224  	0,000001  	-0,000000  	25,000590  	19,677660  	21,581656  	32,444067  	47,341525  	45,189245  	46,958398  	52,670323  	63,387745  	61,930129  	64,431678  	71,202701  	25,818665  	23,133546  	19,462706  	73,097434  	0,065297  	0,033087  	-7494,957312  	-1,993000  	-0,011065  	-0,049984  	0,203269  	0,102998  	-2,330272  	4723,268660  	1154,103281  	0,167389  	-0,047938  
22,594000  	9,921805  	64,029958  	1256,818530  	1256,670793  	80,243068  	74,849693  	0,004011  	0,006177  	0,003963  	0,004042  	0,004228  	0,000001  	-0,000000  	24,986699  	19,654620  	21,565767  	32,433431  	47,328130  	45,178142  	46,946694  	52,661879  	63,383827  	61,928039  	64,431112  	71,203319  	25,807316  	23,118915  	19,455187  	73,087705  	0,040548  	0,020546  	-4654,513339  	-1,993002  	-0,011065  	-0,049984  	0,207101  	0,104939  	-2,373183  	4671,142614  	1156,221609  	0,167696  	-0,047938  
23,598000  	9,922080  	64,033315  	1256,818530  	1256,670793  	80,243599  	74,847042  	0,004006  	0,006169  	0,003964  	0,003964  	0,004234  	0,000000  	-0,000000  	24,999205  	19,666656  	21,584349  	32,436518  	47,347132  	45,190856  	46,962784  	52,674756  	63,383405  	61,931008  	64,436424  	71,201371  	25,811063  	23,127912  	19,452280  	73,097277  	-0,022245  	-0,011272  	2553,641487  	-1,993558  	-0,011068  	-0,050000  	0,211586  	0,107212  	-2,426014  	4654,160369  	1052,049299  	0,152587  	-0,047951  
24,594000  	9,923548  	64,026725  	1256,818530  	1256,670793  	80,244662  	74,853655  	0,004008  	0,006205  	0,003964  	0,004052  	0,004261  	0,000002  	-0,000000  	25,002303  	19,673402  	21,585075  	32,446087  	47,348601  	45,190890  	46,962076  	52,666542  	63,381562  	61,931353  	64,435587  	71,199229  	25,814223  	23,124980  	19,464154  	73,094975  	0,048858  	0,024757  	-5607,956019  	-1,992524  	-0,011063  	-0,049971  	0,232702  	0,117912  	-2,665386  	4730,133718  	1091,506689  	0,158310  	-0,047927  
25,597000  	9,922967  	64,026507  	1256,818530  	1256,670793  	80,247036  	74,850629  	0,004004  	0,006203  	0,003963  	0,003994  	0,004195  	-0,000001  	-0,000000  	24,993429  	19,668213  	21,574348  	32,433186  	47,340234  	45,190575  	46,955211  	52,673922  	63,386708  	61,930132  	64,426416  	71,199210  	25,798963  	23,120838  	19,454742  	73,089245  	0,001913  	0,000969  	-219,526037  	-1,993970  	-0,011071  	-0,050012  	0,181016  	0,091722  	-2,075450  	4726,971433  	1015,614058  	0,147302  	-0,047961  
26,597000  	9,922172  	64,020973  	1256,818530  	1256,670793  	80,250348  	74,855433  	0,004004  	0,006200  	0,003966  	0,004017  	0,004207  	0,000001  	-0,000001  	25,004274  	19,666206  	21,568899  	32,433728  	47,340769  	45,187744  	46,945002  	52,658666  	63,368300  	61,917313  	64,439880  	71,194824  	25,795111  	23,104111  	19,444860  	73,100971  	0,020399  	0,010337  	-2341,273977  	-1,993336  	-0,011067  	-0,049994  	0,190374  	0,096464  	-2,182136  	4720,109913  	1008,051627  	0,146206  	-0,047946  
27,592000  	9,921988  	64,019761  	1256,818530  	1256,670793  	80,248567  	74,869344  	0,004006  	0,006180  	0,003962  	0,004004  	0,004262  	0,000002  	-0,000000  	24,986637  	19,663550  	21,566011  	32,443237  	47,330711  	45,182203  	46,943087  	52,660584  	63,364157  	61,920793  	64,407548  	71,184244  	25,786519  	23,088797  	19,458007  	73,091063  	0,009983  	0,005059  	-1145,776210  	-1,992843  	-0,011064  	-0,049980  	0,233822  	0,118479  	-2,672365  	4677,310837  	1062,407923  	0,154089  	-0,047934  
28,598000  	9,920459  	64,017150  	1256,818530  	1256,670793  	80,248442  	74,862295  	0,004007  	0,006189  	0,003966  	0,004004  	0,004232  	0,000002  	-0,000000  	24,985202  	19,661885  	21,558669  	32,443886  	47,333087  	45,176880  	46,946456  	52,664250  	63,367374  	61,919706  	64,421536  	71,192412  	25,771034  	23,058856  	19,452226  	73,092786  	0,009965  	0,005049  	-1143,649679  	-1,992639  	-0,011063  	-0,049974  	0,209831  	0,106323  	-2,401249  	4696,705473  	1073,211396  	0,155656  	-0,047929  
29,603000  	9,919388  	64,013295  	1256,818530  	956,927186  	80,247130  	74,863137  	0,004006  	0,006203  	0,003962  	0,004069  	0,004334  	0,000001  	-0,000000  	24,988749  	19,657551  	21,567326  	32,434873  	47,332168  	45,182701  	46,945556  	52,656340  	63,367117  	61,920920  	64,425286  	71,193650  	25,768981  	23,046632  	19,445878  	73,089226  	0,062711  	0,031776  	-7196,808682  	-4419,983242  	-0,012269  	-0,049992  	0,290624  	0,147262  	-3,324504  	4726,885832  	1057,436914  	0,153368  	-0,047944  
30,593000  	9,919572  	64,016590  	1256,818530  	357,439972  	80,246005  	74,870748  	0,004006  	0,006206  	0,003964  	0,004076  	0,004294  	0,000002  	-0,000000  	24,993753  	19,676167  	21,561695  	32,444471  	47,333177  	45,189624  	46,961210  	52,668629  	63,370735  	61,929618  	64,420848  	71,188628  	25,769083  	23,030651  	19,454955  	73,091097  	0,068316  	0,034616  	-7840,403357  	-16225,613466  	-0,015667  	-0,049970  	0,258790  	0,131131  	-2,955544  	4732,991800  	1059,138637  	0,153615  	-0,047926  
31,595000  	9,919296  	64,015751  	357,499067  	357,439972  	80,246286  	74,869313  	0,004007  	0,006184  	0,003962  	0,004023  	0,004265  	0,000000  	-0,000000  	24,993260  	19,664771  	21,564349  	32,438221  	47,338864  	45,190336  	46,956927  	52,661156  	63,366555  	61,918196  	64,426226  	71,189997  	25,762720  	23,025687  	19,446916  	73,095527  	0,024908  	0,012621  	-2858,572797  	-1,685119  	-0,026850  	-0,049996  	0,236419  	0,119795  	-2,700916  	4686,505514  	1067,421300  	0,154816  	-0,047948  
32,593000  	9,919908  	64,025699  	-242,047242  	956,927186  	80,244787  	74,866568  	0,004005  	0,006195  	0,003962  	0,004044  	0,004210  	-0,000001  	-0,000000  	24,994491  	19,674314  	21,568576  	32,441379  	47,340680  	45,189915  	46,950970  	52,662857  	63,368212  	61,924267  	64,434856  	71,195715  	25,767724  	23,017875  	19,460848  	73,095373  	0,042194  	0,021380  	-4843,295885  	34201,152444  	-0,026859  	-0,050013  	0,192409  	0,097495  	-2,198636  	4708,168930  	1028,542920  	0,149178  	-0,047962  
33,595000  	9,918899  	64,031792  	1256,818530  	57,696365  	80,242256  	74,871154  	0,004004  	0,006206  	0,003961  	0,003965  	0,004246  	0,000001  	-0,000000  	24,991344  	19,664153  	21,563098  	32,445980  	47,341522  	45,182757  	46,953909  	52,664886  	63,366258  	61,926861  	64,424949  	71,189877  	25,758917  	23,000755  	19,446605  	73,091880  	-0,021582  	-0,010936  	2477,684129  	-24488,448764  	-0,018196  	-0,049989  	0,220892  	0,111928  	-2,520781  	4732,200875  	1002,141492  	0,145348  	-0,047942  
34,594000  	9,917859  	64,030984  	1256,818530  	1256,670793  	80,238569  	74,876831  	0,004010  	0,006186  	0,003961  	0,004010  	0,004224  	-0,000001  	-0,000000  	24,982972  	19,664028  	21,566321  	32,440045  	47,344237  	45,184320  	46,949553  	52,664509  	63,357920  	61,928047  	64,418375  	71,191852  	25,761671  	22,995307  	19,446426  	73,084134  	0,015067  	0,007634  	-1729,663597  	-1,993802  	-0,011070  	-0,050007  	0,203335  	0,103031  	-2,316374  	4690,223851  	1149,838381  	0,166770  	-0,047957  
35,594000  	9,918501  	64,039284  	1256,818530  	1256,670793  	80,235413  	74,882383  	0,004004  	0,006182  	0,003961  	0,003895  	0,004320  	-0,000000  	-0,000000  	24,984876  	19,662790  	21,569934  	32,439966  	47,344911  	45,188591  	46,949222  	52,659016  	63,366434  	61,926777  	64,419672  	71,191491  	25,757713  	22,984037  	19,443511  	73,089099  	-0,078111  	-0,039579  	8968,504171  	-1,993581  	-0,011068  	-0,050001  	0,279433  	0,141591  	-3,178113  	4681,029174  	1007,507923  	0,146127  	-0,047952  
36,595000  	9,917400  	64,045750  	1256,818530  	1256,670793  	80,233913  	74,895921  	0,004006  	0,006203  	0,003961  	0,004040  	0,004245  	0,000000  	-0,000000  	24,988950  	19,665103  	21,570312  	32,433817  	47,347306  	45,185923  	46,952203  	52,655202  	63,360702  	61,922622  	64,416082  	71,189696  	25,746201  	22,970870  	19,440985  	73,092674  	0,039051  	0,019787  	-4484,366997  	-1,993527  	-0,011068  	-0,049999  	0,220495  	0,111726  	-2,500742  	4726,921912  	1051,547962  	0,152514  	-0,047951  
37,595000  	9,918593  	64,045191  	957,045375  	57,696365  	80,233289  	74,892146  	0,004008  	0,006184  	0,003965  	0,004031  	0,004247  	0,000001  	-0,000000  	24,999910  	19,670304  	21,576073  	32,437487  	47,351580  	45,193560  	46,955515  	52,664300  	63,365881  	61,928664  	64,419666  	71,191288  	25,760813  	22,972680  	19,448057  	73,098911  	0,031819  	0,016123  	-3653,827748  	-21302,507481  	-0,021691  	-0,049989  	0,221571  	0,112272  	-2,514429  	4686,267812  	1091,104207  	0,158251  	-0,047942  
38,596000  	9,918593  	64,054641  	357,499067  	1256,670793  	80,230976  	74,886781  	0,004006  	0,006193  	0,003963  	0,004005  	0,004232  	0,000000  	-0,000000  	25,002752  	19,668357  	21,572250  	32,448581  	47,353704  	45,200500  	46,962608  	52,671230  	63,377242  	61,933930  	64,429287  	71,196366  	25,769695  	22,967886  	19,454319  	73,106263  	0,010542  	0,005342  	-1210,726168  	16230,859445  	-0,015675  	-0,049999  	0,209717  	0,106265  	-2,381261  	4705,005231  	1055,692824  	0,153115  	-0,047951  
39,597000  	9,917950  	64,058465  	1256,818530  	1256,670793  	80,227196  	74,875489  	0,004006  	0,006192  	0,003961  	0,003978  	0,004257  	-0,000002  	-0,000000  	24,995538  	19,664520  	21,568121  	32,448863  	47,351957  	45,200492  	46,965603  	52,669939  	63,371743  	61,932465  	64,432584  	71,195836  	25,765719  	22,956191  	19,450126  	73,098706  	-0,011036  	-0,005592  	1267,628482  	-1,994448  	-0,011073  	-0,050025  	0,230035  	0,116560  	-2,615631  	4703,300993  	1062,676245  	0,154128  	-0,047973  
40,594000  	9,917767  	64,053180  	57,725912  	1256,670793  	80,223384  	74,876987  	0,004011  	0,006195  	0,003963  	0,003986  	0,004228  	0,000001  	-0,000000  	24,992297  	19,664712  	21,565607  	32,446044  	47,347763  	45,198070  	46,965682  	52,668356  	63,366725  	61,928952  	64,429724  	71,196740  	25,761671  	22,946143  	19,447501  	73,090588  	-0,004983  	-0,002525  	572,335368  	24484,836012  	-0,018196  	-0,049986  	0,206991  	0,104884  	-2,351283  	4710,252359  	1167,095693  	0,169273  	-0,047939  
41,593000  	9,917920  	64,059553  	957,045375  	1256,670793  	80,218729  	74,883256  	0,004006  	0,006183  	0,003961  	0,004022  	0,004251  	-0,000001  	-0,000000  	25,000538  	19,668626  	21,566791  	32,445513  	47,349229  	45,201207  	46,975283  	52,667122  	63,373181  	61,934388  	64,428929  	71,205910  	25,763878  	22,937680  	19,453624  	73,097796  	0,024123  	0,012223  	-2770,846024  	4417,560737  	-0,012273  	-0,050010  	0,224919  	0,113968  	-2,549709  	4682,400204  	1052,734226  	0,152686  	-0,047960  
42,593000  	9,917859  	64,065025  	357,499067  	1256,670793  	80,215167  	74,876643  	0,004009  	0,006193  	0,003961  	0,003967  	0,004290  	0,000001  	-0,000000  	25,004046  	19,670333  	21,573770  	32,444230  	47,353986  	45,201426  	46,979338  	52,668456  	63,371495  	61,941817  	64,428013  	71,204547  	25,776175  	22,929894  	19,453770  	73,096058  	-0,020475  	-0,010375  	2352,079234  	16226,839623  	-0,015672  	-0,049985  	0,255718  	0,129574  	-2,900506  	4704,159833  	1119,906406  	0,162429  	-0,047939  
43,593000  	9,917950  	64,065678  	1256,818530  	1256,670793  	80,215573  	74,857273  	0,004012  	0,006194  	0,003960  	0,004072  	0,004209  	-0,000001  	-0,000000  	24,995605  	19,669945  	21,571924  	32,449852  	47,354842  	45,193545  	46,972608  	52,670714  	63,364757  	61,939732  	64,423185  	71,195616  	25,784208  	22,913379  	19,449221  	73,089142  	0,064740  	0,032804  	-7437,050121  	-1,993794  	-0,011070  	-0,050007  	0,192108  	0,097342  	-2,187065  	4706,347256  	1174,382741  	0,170330  	-0,047957  
44,593000  	9,917706  	64,067108  	1256,818530  	57,696365  	80,218073  	74,864884  	0,004004  	0,006169  	0,003961  	0,003966  	0,004257  	0,000001  	-0,000000  	24,993103  	19,671955  	21,567839  	32,451818  	47,354974  	45,198336  	46,977030  	52,668178  	63,365964  	61,940652  	64,422382  	71,197465  	25,786923  	22,893251  	19,451507  	73,099082  	-0,020873  	-0,010577  	2397,865913  	-24485,417506  	-0,018194  	-0,049982  	0,229887  	0,116485  	-2,614673  	4653,706189  	1009,590945  	0,146429  	-0,047936  
45,592000  	9,917155  	64,067139  	57,725912  	1256,670793  	80,219447  	74,874023  	0,004008  	0,006201  	0,003961  	0,003971  	0,004206  	0,000001  	-0,000000  	24,987696  	19,668339  	21,562564  	32,444095  	47,350886  	45,203599  	46,977057  	52,669548  	63,362100  	61,938230  	64,425598  	71,193121  	25,792195  	22,885133  	19,447388  	73,094050  	-0,016656  	-0,008440  	1913,492431  	24486,541606  	-0,018198  	-0,049990  	0,189663  	0,096104  	-2,154055  	4721,601917  	1099,902329  	0,159527  	-0,047942  
46,594000  	9,917216  	64,071615  	1256,818530  	1256,670793  	80,218885  	74,860673  	0,004009  	0,006212  	0,003961  	0,004003  	0,004219  	0,000001  	-0,000000  	24,994254  	19,674261  	21,563683  	32,454272  	47,354204  	45,214604  	46,976919  	52,671124  	63,369156  	61,945128  	64,431138  	71,193282  	25,797892  	22,880030  	19,447165  	73,094103  	0,008714  	0,004416  	-1001,165461  	-1,993092  	-0,011066  	-0,049987  	0,199616  	0,101147  	-2,272513  	4746,031447  	1130,413313  	0,163953  	-0,047940  
47,594000  	9,917400  	64,070589  	1256,818530  	357,439972  	80,215635  	74,857179  	0,004007  	0,006179  	0,003958  	0,003938  	0,004222  	0,000001  	-0,000000  	24,995723  	19,669712  	21,572415  	32,454983  	47,355873  	45,217578  	46,975746  	52,675428  	63,372200  	61,950731  	64,435582  	71,193217  	25,802075  	22,858618  	19,455247  	73,092830  	-0,043994  	-0,022292  	5054,345538  	-16231,142698  	-0,015672  	-0,049989  	0,201994  	0,102352  	-2,299680  	4674,640935  	1069,228939  	0,155079  	-0,047942  
48,595000  	9,917828  	64,070403  	1256,818530  	956,927186  	80,215823  	74,865165  	0,004010  	0,006165  	0,003964  	0,003974  	0,004206  	0,000002  	-0,000000  	24,993615  	19,674750  	21,575203  	32,446162  	47,363807  	45,206630  	46,983413  	52,671041  	63,381429  	61,948015  	64,427816  	71,192588  	25,813265  	22,849982  	19,456413  	73,099433  	-0,014521  	-0,007358  	1668,213443  	-4418,742417  	-0,012265  	-0,049976  	0,189203  	0,095871  	-2,150932  	4645,488494  	1140,298844  	0,165386  	-0,047931  
49,596000  	9,917889  	64,078082  	1256,818530  	956,927186  	80,212948  	74,871434  	0,004010  	0,006207  	0,003964  	0,004002  	0,004216  	0,000000  	-0,000000  	25,001182  	19,678848  	21,566101  	32,454138  	47,361207  	45,210853  	46,985079  	52,679724  	63,390500  	61,950442  	64,435526  	71,200958  	25,809467  	22,835136  	19,454513  	73,100042  	0,008632  	0,004374  	-991,839685  	-4420,269089  	-0,012269  	-0,049995  	0,197111  	0,099878  	-2,237005  	4733,998496  	1140,263538  	0,165381  	-0,047947  
50,592000  	9,918868  	64,079885  	1256,818530  	357,439972  	80,206637  	74,885034  	0,004006  	0,006196  	0,003959  	0,004007  	0,004254  	0,000001  	-0,000000  	24,996626  	19,666856  	21,564784  	32,443782  	47,365057  	45,204024  	46,982059  	52,670475  	63,379090  	61,955552  	64,424975  	71,196581  	25,805752  	22,816361  	19,446123  	73,097366  	0,012445  	0,006306  	-1430,012277  	-16231,488646  	-0,015672  	-0,049991  	0,227206  	0,115127  	-2,568942  	4710,881986  	1061,143988  	0,153906  	-0,047943  
51,597000  	9,919969  	64,081004  	1256,818530  	1256,670793  	80,206168  	74,879856  	0,004008  	0,006190  	0,003960  	0,004044  	0,004197  	0,000002  	-0,000000  	24,998564  	19,681141  	21,573158  	32,441271  	47,365970  	45,208473  	46,988854  	52,671619  	63,382309  	61,946311  	64,426595  	71,196202  	25,816342  	22,815803  	19,455317  	73,089603  	0,041895  	0,021229  	-4813,897874  	-1,992853  	-0,011064  	-0,049980  	0,182266  	0,092356  	-2,062643  	4697,954115  	1106,144335  	0,160433  	-0,047934  
52,594000  	9,920336  	64,077709  	1256,818530  	1256,670793  	80,209355  	74,868440  	0,004008  	0,006188  	0,003962  	0,004054  	0,004219  	0,000002  	-0,000000  	25,005219  	19,666692  	21,567173  	32,449198  	47,360337  	45,211093  	46,987997  	52,671630  	63,387700  	61,939863  	64,429640  	71,190864  	25,799560  	22,811401  	19,449566  	73,089851  	0,050779  	0,025730  	-5834,303946  	-1,992452  	-0,011062  	-0,049969  	0,199960  	0,101321  	-2,269077  	4694,665198  	1101,653480  	0,159781  	-0,047925  
53,597000  	9,920704  	64,079760  	57,725912  	1256,670793  	80,211261  	74,862607  	0,004006  	0,006197  	0,003961  	0,003970  	0,004244  	-0,000000  	-0,000000  	25,000903  	19,665369  	21,572590  	32,452499  	47,370380  	45,211386  	46,987837  	52,668343  	63,382189  	61,952515  	64,429578  	71,201545  	25,815400  	22,804403  	19,446489  	73,084642  	-0,017750  	-0,008994  	2039,427102  	24491,362462  	-0,018201  	-0,050001  	0,219314  	0,111128  	-2,492310  	4712,487889  	1050,947769  	0,152427  	-0,047952  
54,601000  	9,922050  	64,078517  	1256,818530  	657,183579  	80,210074  	74,854372  	0,004008  	0,006197  	0,003960  	0,004035  	0,004159  	0,000002  	-0,000000  	24,991531  	19,668410  	21,555050  	32,450307  	47,366263  	45,208270  	46,987982  	52,674839  	63,384132  	61,958121  	64,426930  	71,199330  	25,809136  	22,801450  	19,451092  	73,085005  	0,034774  	0,017620  	-3995,276584  	-9722,712000  	-0,013760  	-0,049980  	0,151858  	0,076948  	-1,727999  	4713,705403  	1109,484232  	0,160917  	-0,047934  
55,597000  	9,923151  	64,075999  	357,499067  	657,183579  	80,206168  	74,859425  	0,004006  	0,006006  	0,003960  	0,003938  	0,004281  	-0,000000  	-0,000000  	25,003155  	19,667390  	21,560543  	32,452374  	47,372381  	45,218479  	46,997689  	52,671221  	63,393131  	61,963768  	64,429532  	71,209358  	25,809968  	22,800084  	19,458354  	73,091228  	-0,043389  	-0,021986  	4984,778774  	7100,559273  	-0,021697  	-0,050003  	0,248589  	0,125962  	-2,823973  	4301,988020  	1050,291087  	0,152332  	-0,047954  
56,595000  	9,924007  	64,076931  	957,045375  	57,696365  	80,200170  	74,864042  	0,004003  	0,005981  	0,003964  	0,003974  	0,004191  	-0,000000  	-0,000000  	24,999349  	19,671390  	21,572497  	32,450959  	47,369954  	45,212025  	47,000145  	52,677436  	63,395100  	61,964447  	64,441651  	71,198079  	25,810926  	22,808367  	19,460653  	73,082170  	-0,014491  	-0,007343  	1664,865173  	-21307,687641  	-0,021696  	-0,050002  	0,177707  	0,090045  	-2,014749  	4247,502641  	996,965711  	0,144598  	-0,047953  
57,595000  	9,924497  	64,073574  	57,725912  	57,696365  	80,194452  	74,849974  	0,004009  	0,005995  	0,003964  	0,004017  	0,004183  	0,000004  	-0,000000  	25,008061  	19,673385  	21,571731  	32,465373  	47,374876  	45,224602  	47,009937  	52,680800  	63,403935  	61,974847  	64,443683  	71,206043  	25,818631  	22,828961  	19,461114  	73,083528  	0,020472  	0,010373  	-2351,750561  	-1,523693  	-0,051135  	-0,049951  	0,170903  	0,086598  	-1,940633  	4278,871510  	1125,774175  	0,163280  	-0,047909  
58,597000  	9,925659  	64,077056  	1256,818530  	1256,670793  	80,191515  	74,826455  	0,004012  	0,006058  	0,003961  	0,004044  	0,004259  	-0,000001  	-0,000000  	25,010979  	19,669420  	21,575124  	32,460780  	47,376022  	45,223952  	47,002195  	52,677796  	63,401950  	61,972825  	64,437326  	71,201986  	25,822677  	22,832315  	19,459323  	73,079759  	0,042285  	0,021426  	-4857,843160  	-1,993809  	-0,011070  	-0,050007  	0,231342  	0,117223  	-2,637045  	4414,213032  	1188,759127  	0,172415  	-0,047957  
59,598000  	9,926760  	64,082372  	357,499067  	1256,670793  	80,191359  	74,794203  	0,004005  	0,006113  	0,003960  	0,003980  	0,004250  	0,000000  	-0,000001  	25,005501  	19,673668  	21,573937  	32,458551  	47,377738  	45,226781  	47,006359  	52,676720  	63,405265  	61,966677  	64,441552  	71,206511  	25,836509  	22,837367  	19,462257  	73,069210  	-0,009822  	-0,004977  	1128,454310  	16229,578141  	-0,015674  	-0,049995  	0,223974  	0,113489  	-2,568312  	4532,868021  	1041,104605  	0,150999  	-0,047947  
60,595000  	9,928290  	64,081191  	-242,047242  	1256,670793  	80,195171  	74,763947  	0,004009  	0,006146  	0,003960  	0,003976  	0,004301  	0,000002  	-0,000000  	24,997632  	19,664093  	21,567882  	32,455745  	47,365526  	45,218075  	47,006730  	52,670770  	63,397677  	61,963391  	64,432170  	71,202029  	25,828630  	22,842389  	19,454222  	73,064675  	-0,013065  	-0,006620  	1501,017886  	35493,048910  	-0,021687  	-0,049975  	0,264974  	0,134264  	-3,057626  	4603,646592  	1117,597429  	0,162094  	-0,047930  
61,599000  	9,929514  	64,081066  	957,045375  	57,696365  	80,196826  	74,743922  	0,004006  	0,006207  	0,003961  	0,003999  	0,004219  	0,000000  	-0,000001  	24,996193  	19,661424  	21,569391  	32,454059  	47,365933  	45,212676  	46,997892  	52,673059  	63,407146  	61,965015  	64,426685  	71,195844  	25,835490  	22,838471  	19,449049  	73,058697  	0,005473  	0,002773  	-628,805245  	-21305,727918  	-0,021694  	-0,049997  	0,200023  	0,101353  	-2,317342  	4735,368819  	1054,174689  	0,152895  	-0,047949  
62,648000  	9,929269  	64,085729  	-242,047242  	657,183579  	80,196389  	74,737185  	0,004003  	0,006196  	0,003959  	0,004011  	0,004222  	0,000001  	-0,000000  	25,008277  	19,665333  	21,573967  	32,461448  	47,371128  	45,221643  	47,004458  	52,680327  	63,412154  	61,970599  	64,434462  	71,196664  	25,836187  	22,844716  	19,450640  	73,061306  	0,015486  	0,007847  	-1779,244230  	32734,799492  	-0,035216  	-0,049985  	0,201881  	0,102294  	-2,341561  	4711,056725  	1000,545685  	0,145117  	-0,047938  
63,591000  	9,930278  	64,081999  	-242,047242  	-242,047242  	80,193515  	74,745513  	0,004006  	0,006182  	0,003965  	0,004055  	0,004286  	0,000001  	-0,000000  	25,008154  	19,669965  	21,576713  	32,460154  	47,376173  	45,220407  	47,010959  	52,678622  	63,406314  	61,974769  	64,434672  	71,197948  	25,841658  	22,857357  	19,455141  	73,070082  	0,050926  	0,025804  	-5850,504060  	-0,000000  	-0,544340  	-0,049990  	0,252415  	0,127901  	-2,921694  	4681,828588  	1053,998161  	0,152870  	-0,047943  
64,592000  	9,930951  	64,085667  	-242,047242  	956,927186  	80,193702  	74,754683  	0,004009  	0,006000  	0,003963  	0,004048  	0,004212  	-0,000001  	-0,000000  	25,005242  	19,673955  	21,580878  	32,457864  	47,373768  	45,212385  	47,006693  	52,677631  	63,405759  	61,968866  	64,433678  	71,196436  	25,852214  	22,866241  	19,459175  	73,076984  	0,045614  	0,023113  	-5240,598377  	34199,812825  	-0,026858  	-0,050011  	0,194390  	0,098499  	-2,246344  	4287,616252  	1126,423795  	0,163374  	-0,047961  
65,593000  	9,932787  	64,083771  	1256,818530  	57,696365  	80,193452  	74,770154  	0,004011  	0,005996  	0,003962  	0,004024  	0,004156  	0,000003  	-0,000000  	25,006546  	19,671455  	21,575613  	32,461144  	47,371073  	45,211445  	47,005565  	52,682057  	63,408638  	61,967799  	64,435213  	71,198686  	25,850235  	22,869387  	19,460781  	73,074999  	0,025745  	0,013045  	-2957,682921  	-24475,313912  	-0,018186  	-0,049959  	0,150128  	0,076071  	-1,729848  	4280,775955  	1166,297789  	0,169157  	-0,047916  
66,592000  	9,934377  	64,082652  	657,272221  	1256,670793  	80,191765  	74,778139  	0,004009  	0,006000  	0,003958  	0,004032  	0,004213  	0,000002  	-0,000000  	25,003751  	19,672540  	21,573239  	32,459124  	47,372334  	45,216963  	47,012378  	52,678987  	63,411610  	61,971742  	64,432318  	71,200413  	25,849580  	22,873501  	19,459789  	73,072216  	0,032714  	0,016576  	-3758,012744  	9717,460638  	-0,013758  	-0,049971  	0,194623  	0,098617  	-2,238554  	4288,787075  	1126,120168  	0,163330  	-0,047926  
67,593000  	9,935479  	64,082838  	657,272221  	357,439972  	80,191234  	74,770185  	0,004011  	0,006034  	0,003961  	0,003971  	0,004234  	0,000001  	-0,000000  	25,002189  	19,674002  	21,571717  	32,454622  	47,370684  	45,220023  	47,014646  	52,675262  	63,412207  	61,973981  	64,431133  	71,201352  	25,852916  	22,878509  	19,457145  	73,074273  	-0,017234  	-0,008733  	1979,774348  	-7101,431639  	-0,021689  	-0,049983  	0,211501  	0,107169  	-2,436009  	4361,179332  	1153,700799  	0,167330  	-0,047937  
68,593000  	9,935356  	64,076621  	57,725912  	-242,047242  	80,192484  	74,749537  	0,004009  	0,006119  	0,003962  	0,004040  	0,004206  	0,000003  	-0,000000  	25,001789  	19,671357  	21,570988  	32,452928  	47,368090  	45,216694  	47,013494  	52,674623  	63,409509  	61,976216  	64,436239  	71,206182  	25,849999  	22,879910  	19,455510  	73,073392  	0,039438  	0,019983  	-4529,856233  	-27684,323650  	-0,093508  	-0,049969  	0,189449  	0,095995  	-2,190825  	4544,900265  	1113,346651  	0,161477  	-0,047925  
69,591000  	9,935876  	64,073014  	1256,818530  	-242,047242  	80,198107  	74,725239  	0,004005  	0,006230  	0,003964  	0,004015  	0,004217  	0,000001  	-0,000000  	25,000189  	19,675116  	21,574549  	32,449638  	47,362888  	45,209878  	47,012386  	52,667602  	63,404836  	61,972564  	64,433338  	71,200976  	25,848205  	22,874618  	19,454346  	73,069502  	0,018700  	0,009475  	-2147,732077  	-35502,885265  	-0,021690  	-0,049989  	0,198470  	0,100566  	-2,307754  	4785,130581  	1029,023074  	0,149247  	-0,047942  
70,595000  	9,936916  	64,061698  	1256,818530  	-242,047242  	80,204794  	74,713074  	0,004004  	0,006190  	0,003962  	0,004000  	0,004266  	0,000001  	-0,000000  	25,002927  	19,672306  	21,560088  	32,450420  	47,359826  	45,200174  	47,006965  	52,665776  	63,398931  	61,967373  	64,426288  	71,188922  	25,840217  	22,864315  	19,450614  	73,068477  	0,006604  	0,003346  	-758,299898  	-35498,888520  	-0,021688  	-0,049983  	0,237094  	0,120137  	-2,766357  	4699,239545  	1016,136579  	0,147378  	-0,047937  
71,591000  	9,936549  	64,057595  	1256,818530  	657,183579  	80,210574  	74,718283  	0,004008  	0,006183  	0,003964  	0,004018  	0,004264  	0,000003  	-0,000001  	25,001879  	19,668277  	21,567621  	32,455890  	47,372524  	45,198990  	47,009873  	52,665911  	63,404096  	61,971096  	64,437653  	71,195653  	25,832472  	22,869075  	19,451670  	73,075574  	0,021311  	0,010799  	-2446,923560  	-9718,818859  	-0,013755  	-0,049957  	0,235715  	0,119439  	-2,750562  	4683,382847  	1104,315512  	0,160167  	-0,047915  
72,592000  	9,937345  	64,052869  	1256,818530  	1256,670793  	80,212948  	74,743610  	0,004006  	0,006184  	0,003960  	0,003971  	0,004289  	0,000000  	-0,000000  	25,001241  	19,677481  	21,579973  	32,452726  	47,369835  	45,210377  	47,008976  	52,664908  	63,404120  	61,984200  	64,437624  	71,200028  	25,841126  	22,876033  	19,457425  	73,087467  	-0,016723  	-0,008474  	1919,894390  	-1,993417  	-0,011068  	-0,049996  	0,255382  	0,129404  	-2,967606  	4686,264275  	1063,495332  	0,154247  	-0,047948  
73,592000  	9,937528  	64,043108  	57,725912  	-242,047242  	80,215479  	74,772681  	0,004013  	0,006193  	0,003962  	0,003978  	0,004262  	0,000002  	-0,000000  	24,992524  	19,675582  	21,567488  	32,444013  	47,358700  	45,204653  	47,014044  	52,669999  	63,398138  	61,976278  	64,431471  	71,192245  	25,825828  	22,859556  	19,448771  	73,083668  	-0,011331  	-0,005742  	1300,687795  	-27684,402760  	-0,093508  	-0,049969  	0,233660  	0,118397  	-2,702037  	4705,528033  	1201,702111  	0,174292  	-0,047925  
74,592000  	9,937528  	64,045284  	657,272221  	-242,047242  	80,220541  	74,797946  	0,004006  	0,006186  	0,003959  	0,003990  	0,004274  	0,000000  	-0,000000  	24,986526  	19,664105  	21,561379  	32,439834  	47,349909  	45,196371  	46,994664  	52,652443  	63,393582  	61,959914  	64,420983  	71,196345  	25,812866  	22,844599  	19,448604  	73,083078  	-0,001217  	-0,000617  	139,713724  	-32740,821776  	-0,035218  	-0,049994  	0,243296  	0,123280  	-2,803028  	4690,401420  	1061,440554  	0,153949  	-0,047947  
75,601000  	9,938079  	64,042486  	657,272221  	657,183579  	80,229477  	74,802531  	0,004010  	0,006081  	0,003962  	0,004021  	0,004174  	0,000000  	-0,000000  	24,991236  	19,663970  	21,568596  	32,441977  	47,344372  	45,191266  	47,005796  	52,653874  	63,395625  	61,964622  	64,426220  	71,197788  	25,821266  	22,840737  	19,453881  	73,100551  	0,023646  	0,011982  	-2714,132580  	-1,810502  	-0,018199  	-0,049995  	0,164334  	0,083269  	-1,894824  	4463,587113  	1131,521905  	0,164113  	-0,047947  
76,594000  	9,938201  	64,035833  	1256,818530  	1256,670793  	80,237788  	74,814509  	0,004003  	0,006020  	0,003964  	0,003999  	0,004252  	0,000001  	-0,000000  	24,981608  	19,662306  	21,565626  	32,436617  	47,337109  	45,186342  	47,010035  	52,653090  	63,380050  	61,966120  	64,422495  	71,190738  	25,809156  	22,828002  	19,444966  	73,088310  	0,005546  	0,002810  	-636,471980  	-1,993217  	-0,011066  	-0,049990  	0,225748  	0,114388  	-2,601191  	4330,899929  	989,706907  	0,143545  	-0,047943  
77,592000  	9,938538  	64,037077  	957,045375  	1256,670793  	80,241256  	74,827703  	0,004002  	0,006019  	0,003965  	0,003933  	0,004280  	-0,000001  	-0,000000  	25,007726  	19,666161  	21,575160  	32,450279  	47,348706  	45,186776  	46,996843  	52,648351  	63,390704  	61,964696  	64,429052  	71,192873  	25,809069  	22,826251  	19,454280  	73,090168  	-0,047585  	-0,024112  	5461,358031  	4417,295842  	-0,012272  	-0,050007  	0,248250  	0,125790  	-2,855346  	4329,873425  	963,891549  	0,139801  	-0,047957  
78,594000  	9,938660  	64,034092  	357,499067  	1256,670793  	80,250004  	74,829262  	0,004010  	0,005996  	0,003961  	0,003997  	0,004270  	0,000000  	-0,000000  	24,992337  	19,660933  	21,564939  	32,430266  	47,333507  	45,186667  	46,999340  	52,650078  	63,380155  	61,961247  	64,421704  	71,183387  	25,795316  	22,823554  	19,440894  	73,093786  	0,003909  	0,001981  	-448,626450  	16229,480677  	-0,015674  	-0,049995  	0,240012  	0,121616  	-2,764264  	4279,291026  	1137,968683  	0,165048  	-0,047947  
79,593000  	9,938201  	64,021968  	1256,818530  	357,439972  	80,261096  	74,805401  	0,004010  	0,006125  	0,003959  	0,003959  	0,004262  	0,000001  	-0,000000  	25,001694  	19,660833  	21,562306  	32,441860  	47,342466  	45,182492  	47,000599  	52,639628  	63,374017  	61,965423  	64,423416  	71,182411  	25,794081  	22,826706  	19,463293  	73,101761  	-0,026913  	-0,013637  	3087,936329  	-16229,147847  	-0,015670  	-0,049982  	0,233957  	0,118548  	-2,711896  	4558,429465  	1136,365815  	0,164816  	-0,047936  
80,594000  	9,938385  	64,018984  	1256,818530  	956,927186  	80,266408  	74,780385  	0,004007  	0,006247  	0,003961  	0,004005  	0,004167  	0,000001  	-0,000000  	24,998158  	19,658615  	21,567567  	32,440253  	47,338491  	45,174020  	46,999303  	52,641291  	63,372229  	61,959758  	64,427785  	71,191716  	25,799902  	22,836093  	19,459580  	73,102257  	0,010310  	0,005224  	-1182,841376  	-4419,588302  	-0,012267  	-0,049987  	0,158180  	0,080151  	-1,843712  	4821,001637  	1077,045570  	0,156212  	-0,047940  
81,593000  	9,939088  	64,016932  	957,045375  	57,696365  	80,267783  	74,760017  	0,004006  	0,006187  	0,003965  	0,003952  	0,004295  	0,000000  	-0,000000  	25,003147  	19,670933  	21,564469  	32,441537  	47,340284  	45,189962  	47,002205  	52,658236  	63,378221  	61,962496  	64,431205  	71,195748  	25,798174  	22,828554  	19,459362  	73,110863  	-0,032091  	-0,016261  	3681,719351  	-21305,955720  	-0,021694  	-0,049998  	0,259733  	0,131609  	-3,039382  	4691,261675  	1048,850624  	0,152123  	-0,047949  
82,591000  	9,938415  	64,018486  	357,499067  	1256,670793  	80,268533  	74,757646  	0,004009  	0,006153  	0,003965  	0,003979  	0,004222  	0,000004  	-0,000000  	24,990880  	19,667395  	21,562235  	32,428845  	47,335966  	45,173314  	46,988403  	52,645517  	63,370353  	61,952579  	64,426455  	71,191237  	25,794652  	22,832844  	19,457823  	73,096937  	-0,010752  	-0,005448  	1233,624648  	16216,220732  	-0,015661  	-0,049949  	0,201941  	0,102325  	-2,364436  	4618,226350  	1112,400464  	0,161340  	-0,047908  
83,594000  	9,939517  	64,025668  	1256,818530  	357,439972  	80,268095  	74,775706  	0,004008  	0,006167  	0,003959  	0,003934  	0,004182  	0,000000  	-0,000000  	24,996445  	19,664560  	21,565264  	32,429974  	47,325278  	45,176306  	46,989083  	52,649818  	63,374660  	61,957588  	64,429462  	71,185243  	25,791992  	22,831702  	19,458319  	73,102947  	-0,046436  	-0,023530  	5328,289665  	-16232,904538  	-0,015674  	-0,049995  	0,170584  	0,086436  	-1,990594  	4648,824103  	1105,233454  	0,160301  	-0,047947  
84,594000  	9,938966  	64,023554  	1256,818530  	956,927186  	80,269782  	74,790179  	0,004008  	0,006117  	0,003959  	0,003949  	0,004211  	0,000001  	-0,000000  	24,997056  	19,657424  	21,563482  	32,430702  	47,334028  	45,184008  	47,004012  	52,644874  	63,369239  	61,954855  	64,431197  	71,190271  	25,793002  	22,833714  	19,456183  	73,105503  	-0,034354  	-0,017407  	3941,781006  	-4419,416082  	-0,012267  	-0,049984  	0,193413  	0,098004  	-2,251748  	4541,985587  	1106,165519  	0,160436  	-0,047938  
85,594000  	9,937895  	64,022186  	1256,818530  	1256,670793  	80,271563  	74,801907  	0,004007  	0,005970  	0,003963  	0,004023  	0,004270  	0,000001  	-0,000000  	24,987107  	19,657570  	21,562537  	32,430755  	47,333267  	45,180572  	47,000292  	52,640952  	63,361499  	61,954388  	64,426114  	71,188148  	25,793997  	22,831605  	19,447096  	73,107740  	0,025649  	0,012997  	-2943,002740  	-1,993195  	-0,011066  	-0,049990  	0,239720  	0,121468  	-2,785805  	4223,772068  	1066,750496  	0,154719  	-0,047943  
86,593000  	9,938813  	64,036051  	1256,818530  	657,183579  	80,270751  	74,824927  	0,004006  	0,006019  	0,003965  	0,003953  	0,004235  	0,000000  	-0,000000  	24,987907  	19,664213  	21,558645  	32,433280  	47,331581  	45,175106  	46,993151  	52,640245  	63,362033  	61,947009  	64,422202  	71,187357  	25,788093  	22,827127  	19,452785  	73,107753  	-0,031692  	-0,016058  	3637,181112  	-9725,635060  	-0,013764  	-0,049997  	0,212534  	0,107693  	-2,459123  	4328,982750  	1046,979434  	0,151852  	-0,047949  
87,594000  	9,938446  	64,041367  	1256,818530  	657,183579  	80,274313  	74,825207  	0,004007  	0,005989  	0,003959  	0,004017  	0,004206  	0,000001  	-0,000000  	24,995076  	19,664538  	21,563004  	32,436293  	47,340272  	45,181013  	46,994670  	52,640272  	63,364373  	61,956285  	64,433164  	71,188198  	25,789263  	22,839172  	19,463391  	73,112479  	0,020308  	0,010290  	-2330,926010  	-9724,447033  	-0,013763  	-0,049990  	0,189358  	0,095949  	-2,192285  	4265,977597  	1081,282226  	0,156827  	-0,047943  
88,593000  	9,937651  	64,037015  	1256,818530  	57,696365  	80,277750  	74,801564  	0,004007  	0,006007  	0,003960  	0,004019  	0,004212  	0,000000  	-0,000000  	24,995858  	19,663470  	21,565834  	32,429420  	47,335295  	45,173374  	46,995438  	52,637188  	63,363098  	61,960392  	64,431933  	71,193485  	25,786595  	22,843374  	19,464713  	73,108170  	0,022141  	0,011219  	-2541,170716  	-24491,666561  	-0,018199  	-0,049996  	0,194181  	0,098393  	-2,259288  	4304,025465  	1083,958380  	0,157215  	-0,047948  
89,596000  	9,937773  	64,039222  	1256,818530  	1256,670793  	80,281499  	74,780728  	0,004007  	0,006119  	0,003962  	0,003984  	0,004209  	0,000001  	-0,000000  	24,989875  	19,659155  	21,560818  	32,427286  	47,325591  	45,170706  	46,990684  	52,635250  	63,357915  	61,956041  	64,432520  	71,191413  	25,774173  	22,842427  	19,458340  	73,104810  	-0,006171  	-0,003127  	708,250440  	-1,993021  	-0,011065  	-0,049985  	0,191793  	0,097183  	-2,241512  	4545,323318  	1074,312927  	0,155816  	-0,047938  
90,595000  	9,937895  	64,030144  	1256,818530  	1256,670793  	80,284811  	74,759580  	0,004009  	0,006253  	0,003963  	0,003944  	0,004255  	0,000003  	-0,000000  	24,990885  	19,660244  	21,567974  	32,431145  	47,326145  	45,171988  	46,995202  	52,632504  	63,359612  	61,953038  	64,433655  	71,191883  	25,778566  	22,855873  	19,458085  	73,109899  	-0,038885  	-0,019703  	4462,350237  	-1,992435  	-0,011062  	-0,049968  	0,227981  	0,115520  	-2,676282  	4833,670583  	1111,369544  	0,161191  	-0,047924  
91,592000  	9,937069  	64,029118  	357,499067  	1256,670793  	80,285436  	74,746854  	0,004008  	0,006179  	0,003964  	0,003948  	0,004303  	0,000000  	-0,000000  	24,994569  	19,659903  	21,572665  	32,432179  	47,318636  	45,171184  	47,002831  	52,636333  	63,362068  	61,951099  	64,431626  	71,197914  	25,776793  	22,865438  	19,459602  	73,110880  	-0,035701  	-0,018090  	4096,962549  	16230,587257  	-0,015675  	-0,049998  	0,266503  	0,135039  	-3,136052  	4674,376350  	1098,758432  	0,159361  	-0,047950  
92,594000  	9,937253  	64,037512  	-242,047242  	1256,670793  	80,284436  	74,760391  	0,004004  	0,006163  	0,003961  	0,003910  	0,004305  	0,000000  	-0,000000  	24,991515  	19,661952  	21,565596  	32,431228  	47,318674  	45,172316  	46,999402  	52,638641  	63,358339  	61,953181  	64,433002  	71,199503  	25,771238  	22,872515  	19,458356  	73,112469  	-0,065929  	-0,033407  	7566,947066  	35508,107299  	-0,021696  	-0,049999  	0,268060  	0,135828  	-3,146095  	4639,115819  	1012,888476  	0,146907  	-0,047950  
93,594000  	9,936978  	64,025512  	1256,818530  	-242,047242  	80,282968  	74,782256  	0,004009  	0,006104  	0,003962  	0,003988  	0,004245  	0,000000  	-0,000000  	24,993225  	19,668055  	21,560995  	32,431694  	47,327129  	45,168940  	46,997388  	52,634350  	63,351953  	61,954921  	64,437262  	71,197706  	25,777897  	22,898122  	19,459619  	73,115721  	-0,002955  	-0,001498  	339,136068  	-35507,942955  	-0,021694  	-0,049997  	0,220421  	0,111689  	-2,576065  	4513,133103  	1121,692863  	0,162688  	-0,047949  
94,593000  	9,936182  	64,022901  	1256,818530  	357,439972  	80,282655  	74,789742  	0,004007  	0,006104  	0,003964  	0,003985  	0,004231  	0,000000  	-0,000000  	24,996996  	19,664872  	21,560559  	32,430603  	47,321041  	45,165195  	47,000470  	52,636665  	63,348249  	61,953099  	64,435453  	71,197027  	25,773547  	22,920050  	19,455763  	73,108722  	-0,005432  	-0,002753  	623,339134  	-16233,061463  	-0,015674  	-0,049996  	0,208854  	0,105828  	-2,437419  	4511,982796  	1081,218676  	0,156818  	-0,047948  
95,593000  	9,936825  	64,028030  	1256,818530  	1256,670793  	80,287592  	74,804122  	0,004007  	0,006156  	0,003961  	0,004035  	0,004198  	0,000002  	-0,000000  	24,987158  	19,658964  	21,557928  	32,422309  	47,314020  	45,163743  	46,992967  	52,636131  	63,344543  	61,949472  	64,429052  	71,189963  	25,763312  	22,925623  	19,451590  	73,099512  	0,034783  	0,017625  	-3991,520326  	-1,992864  	-0,011064  	-0,049980  	0,182901  	0,092677  	-2,130873  	4624,840264  	1070,231615  	0,155224  	-0,047935  
96,592000  	9,937436  	64,030082  	1256,818530  	1256,670793  	80,292779  	74,819406  	0,004007  	0,006155  	0,003963  	0,003941  	0,004297  	0,000004  	-0,000000  	24,977273  	19,659490  	21,553009  	32,416120  	47,311383  	45,157444  	46,988197  	52,623482  	63,339992  	61,941474  	64,430780  	71,178942  	25,768114  	22,947741  	19,456048  	73,103386  	-0,041192  	-0,020872  	4727,055069  	-1,991738  	-0,011058  	-0,049949  	0,261755  	0,132633  	-3,043945  	4623,015760  	1069,447833  	0,155110  	-0,047908  
97,592000  	9,937161  	64,028683  	1256,818530  	956,927186  	80,296434  	74,824958  	0,004009  	0,006178  	0,003961  	0,003995  	0,004224  	0,000002  	-0,000000  	24,981095  	19,660484  	21,554712  	32,422881  	47,313573  	45,161287  	46,997888  	52,620932  	63,343857  	61,945188  	64,434171  	71,184825  	25,777198  	22,979392  	19,448633  	73,112786  	0,002199  	0,001114  	-252,373361  	-4418,378877  	-0,012264  	-0,049971  	0,203727  	0,103230  	-2,368323  	4673,187133  	1116,178149  	0,161888  	-0,047927  
98,593000  	9,937039  	64,032973  	657,272221  	-242,047242  	80,303121  	74,815663  	0,004009  	0,006114  	0,003961  	0,003995  	0,004258  	0,000002  	-0,000000  	24,989908  	19,656769  	21,557419  	32,414786  	47,314644  	45,160156  	46,991765  	52,624703  	63,333083  	61,950449  	64,433653  	71,192204  	25,777052  	22,994164  	19,451102  	73,104912  	0,002515  	0,001274  	-288,616650  	-32731,139312  	-0,035208  	-0,049978  	0,230779  	0,116937  	-2,690630  	4534,336679  	1111,807332  	0,161254  	-0,047932  
99,594000  	9,937039  	64,031761  	657,272221  	-242,047242  	80,308245  	74,837871  	0,004007  	0,006186  	0,003959  	0,003980  	0,004236  	0,000002  	-0,000000  	24,981495  	19,657595  	21,559926  	32,398413  	47,304594  	45,158536  	46,982647  	52,615726  	63,333378  	61,942078  	64,426977  	71,187354  	25,771191  	23,011876  	19,453533  	73,108047  	-0,009815  	-0,004973  	1126,421571  	-32729,304967  	-0,035206  	-0,049975  	0,212984  	0,107921  	-2,475440  	4689,636671  	1076,403010  	0,156119  	-0,047930  
100,595000  	9,938385  	64,033502  	1256,818530  	956,927186  	80,305433  	74,828763  	0,004008  	0,006178  	0,003962  	0,003993  	0,004276  	-0,000001  	-0,000000  	24,990321  	19,671246  	21,564402  	32,424760  	47,315336  	45,174088  	47,006139  	52,619364  	63,345498  	61,959480  	64,451053  	71,191489  	25,778473  	23,050971  	19,461004  	73,112109  	0,001176  	0,000596  	-134,942533  	-4421,566566  	-0,012273  	-0,050012  	0,244542  	0,123911  	-2,845490  	4673,374606  	1100,643744  	0,159635  	-0,047961  
101,593000  	9,938568  	64,032600  	57,725912  	57,696365  	80,297559  	74,823055  	0,004006  	0,006210  	0,003963  	0,004007  	0,004245  	0,000002  	-0,000000  	24,990302  	19,663663  	21,563036  	32,415876  	47,309849  	45,166894  	46,996648  	52,626766  	63,334651  	61,946044  	64,447915  	71,196063  	25,777956  	23,085417  	19,459400  	73,102585  	0,012220  	0,006192  	-1402,384470  	-1,524244  	-0,051153  	-0,049971  	0,219997  	0,111474  	-2,558878  	4741,824265  	1047,155962  	0,151877  	-0,047927  
102,594000  	9,938262  	64,031730  	1256,818530  	657,183579  	80,295184  	74,837528  	0,004010  	0,006176  	0,003960  	0,004016  	0,004267  	0,000001  	-0,000000  	24,992795  	19,662366  	21,560124  	32,416713  	47,302861  	45,158851  	46,993356  	52,618072  	63,340976  	61,945571  	64,443835  	71,194853  	25,783809  	23,109048  	19,460484  	73,104723  	0,019808  	0,010037  	-2273,138312  	-9724,657858  	-0,013763  	-0,049991  	0,238027  	0,120610  	-2,760077  	4667,826814  	1140,108194  	0,165359  	-0,047944  
103,593000  	9,937528  	64,040403  	357,499067  	657,183579  	80,299871  	74,863137  	0,004007  	0,006170  	0,003961  	0,003951  	0,004231  	0,000001  	-0,000000  	24,993416  	19,666309  	21,571526  	32,424758  	47,312458  	45,162632  	47,005265  	52,624174  	63,338995  	61,956634  	64,444134  	71,195948  	25,768038  	23,132895  	19,465020  	73,112298  	-0,032856  	-0,016648  	3771,156760  	7099,147109  	-0,021693  	-0,049992  	0,209169  	0,105988  	-2,416163  	4656,330106  	1078,507216  	0,156424  	-0,047945  
104,593000  	9,937589  	64,039968  	957,045375  	1256,670793  	80,303996  	74,881478  	0,004007  	0,006200  	0,003961  	0,004009  	0,004258  	-0,000000  	-0,000000  	24,985849  	19,661598  	21,558839  	32,420333  	47,307873  	45,156288  	46,984383  	52,631070  	63,320891  	61,949502  	64,449353  	71,190632  	25,748844  	23,147148  	19,459292  	73,099465  	0,013537  	0,006859  	-1553,729900  	4416,785134  	-0,012271  	-0,050000  	0,230660  	0,116877  	-2,657443  	4719,422276  	1067,675499  	0,154853  	-0,047952  
105,594000  	9,938171  	64,030113  	957,045375  	57,696365  	80,305745  	74,879139  	0,004009  	0,006206  	0,003961  	0,003979  	0,004261  	0,000001  	-0,000000  	24,996602  	19,667999  	21,557107  	32,418161  	47,298719  	45,167753  	46,987464  	52,623751  	63,336251  	61,942665  	64,453302  	71,203528  	25,748526  	23,172705  	19,461059  	73,093338  	-0,009977  	-0,005055  	1144,869859  	-21303,053582  	-0,021691  	-0,049990  	0,233304  	0,118217  	-2,689934  	4733,941900  	1129,424760  	0,163809  	-0,047943  
106,595000  	9,939211  	64,032351  	357,499067  	1256,670793  	80,307808  	74,874023  	0,004004  	0,006180  	0,003959  	0,003931  	0,004242  	0,000004  	-0,000000  	24,990165  	19,667983  	21,564819  	32,420958  	47,310381  	45,165781  	47,000910  	52,626719  	63,335330  	61,946050  	64,459321  	71,192781  	25,741884  	23,201978  	19,458384  	73,099778  	-0,049448  	-0,025056  	5674,631181  	16216,743713  	-0,015662  	-0,049951  	0,217562  	0,110240  	-2,511746  	4677,152369  	1018,233724  	0,147682  	-0,047909  
107,593000  	9,939486  	64,033284  	357,499067  	1256,670793  	80,308089  	74,889121  	0,004008  	0,006106  	0,003964  	0,004018  	0,004257  	0,000001  	-0,000000  	24,991916  	19,669585  	21,560006  	32,427371  	47,309385  	45,161431  	46,996168  	52,624330  	63,333411  	61,950087  	64,449445  	71,197868  	25,752820  	23,214012  	19,463791  	73,090552  	0,021235  	0,010760  	-2436,970651  	16227,214029  	-0,015672  	-0,049987  	0,229438  	0,116258  	-2,641645  	4517,822764  	1091,817377  	0,158355  	-0,047940  
108,594000  	9,939608  	64,045968  	957,045375  	57,696365  	80,308401  	74,899102  	0,004010  	0,006155  	0,003962  	0,004096  	0,004192  	0,000002  	-0,000000  	24,998947  	19,678652  	21,562817  	32,431748  	47,314032  	45,166197  	47,000638  	52,629861  	63,338968  	61,944702  	64,457489  	71,208838  	25,750399  	23,234928  	19,463712  	73,079144  	0,084169  	0,042649  	-9661,451039  	-21297,821932  	-0,021686  	-0,049976  	0,178676  	0,090537  	-2,053529  	4623,274686  	1137,502651  	0,164981  	-0,047931  
109,593000  	9,939853  	64,052092  	957,045375  	1256,670793  	80,304183  	74,899632  	0,004010  	0,006221  	0,003958  	0,004004  	0,004260  	0,000002  	-0,000000  	25,002898  	19,674334  	21,570911  	32,434456  	47,314752  	45,169288  	47,003698  	52,633363  	63,337556  	61,948323  	64,466038  	71,208754  	25,754960  	23,252391  	19,464599  	73,081450  	0,009758  	0,004944  	-1120,185343  	4415,235221  	-0,012266  	-0,049981  	0,232244  	0,117680  	-2,666843  	4764,674068  	1131,860837  	0,164163  	-0,047935  
110,595000  	9,941138  	64,051035  	357,499067  	1256,670793  	80,299434  	74,907306  	0,004006  	0,006172  	0,003962  	0,003985  	0,004282  	0,000000  	-0,000000  	25,004666  	19,671883  	21,555142  	32,428996  	47,312400  	45,164392  	47,002970  	52,628461  	63,335333  	61,942868  	64,454690  	71,197350  	25,743362  	23,267379  	19,463653  	73,072840  	-0,005522  	-0,002798  	633,914242  	16229,824180  	-0,015674  	-0,049996  	0,249436  	0,126391  	-2,857679  	4660,071789  	1058,517261  	0,153525  	-0,047948  
111,592000  	9,943799  	64,055698  	1256,818530  	357,439972  	80,293466  	74,905559  	0,004013  	0,006156  	0,003961  	0,004031  	0,004297  	0,000001  	-0,000000  	25,005994  	19,665700  	21,557499  	32,428031  	47,320900  	45,167681  	46,999903  	52,630855  	63,340827  	61,940596  	64,462189  	71,203031  	25,744032  	23,279333  	19,465968  	73,066554  	0,031954  	0,016191  	-3668,285020  	-16231,751377  	-0,015673  	-0,049991  	0,261731  	0,132621  	-2,996189  	4625,827859  	1205,275024  	0,174810  	-0,047944  
112,594000  	9,944044  	64,055636  	1256,818530  	956,927186  	80,290654  	74,903001  	0,004007  	0,006092  	0,003959  	0,003996  	0,004228  	0,000002  	-0,000000  	24,992367  	19,668527  	21,554800  	32,419808  	47,308494  	45,154462  	46,991534  	52,618765  	63,331110  	61,933297  	64,453607  	71,191345  	25,744553  	23,280134  	19,460262  	73,059166  	0,003104  	0,001573  	-356,286292  	-4419,024702  	-0,012266  	-0,049980  	0,207196  	0,104988  	-2,371777  	4486,453187  	1080,159512  	0,156664  	-0,047934  
113,593000  	9,944442  	64,061356  	-242,047242  	57,696365  	80,291123  	74,901598  	0,004008  	0,006176  	0,003963  	0,004031  	0,004235  	0,000001  	-0,000000  	24,992655  	19,665053  	21,551715  	32,424843  	47,304438  	45,154672  	46,994838  	52,626511  	63,326641  	61,937447  	64,460510  	71,191059  	25,744102  	23,296286  	19,465102  	73,057358  	0,031546  	0,015984  	-3621,742680  	27692,350176  	-0,093544  	-0,049986  	0,212273  	0,107560  	-2,430733  	4668,598637  	1106,010175  	0,160413  	-0,047939  
114,593000  	9,945543  	64,067201  	357,499067  	657,183579  	80,289873  	74,893924  	0,004011  	0,006149  	0,003963  	0,003966  	0,004219  	0,000001  	-0,000000  	24,992778  	19,656426  	21,555694  	32,426656  	47,316286  	45,160447  	46,996552  	52,625916  	63,325188  	61,940227  	64,465975  	71,196446  	25,743307  	23,306060  	19,464006  	73,048924  	-0,020803  	-0,010541  	2388,604611  	7099,035322  	-0,021692  	-0,049991  	0,199724  	0,101202  	-2,289763  	4610,152974  	1165,987101  	0,169112  	-0,047944  
115,596000  	9,946369  	64,077646  	1256,818530  	-242,047242  	80,289279  	74,879607  	0,004007  	0,006183  	0,003961  	0,004069  	0,004264  	0,000001  	-0,000000  	24,988965  	19,653652  	21,557426  	32,422874  	47,313095  	45,164014  	46,994089  	52,626089  	63,328131  	61,938085  	64,465651  	71,191691  	25,739101  	23,305477  	19,457329  	73,043687  	0,062300  	0,031568  	-7154,491154  	-35501,543482  	-0,021690  	-0,049987  	0,235568  	0,119364  	-2,707562  	4684,109394  	1070,259859  	0,155228  	-0,047941  
116,593000  	9,948266  	64,083118  	57,725912  	-242,047242  	80,289717  	74,874429  	0,004006  	0,006187  	0,003962  	0,004017  	0,004249  	0,000001  	-0,000000  	24,993496  	19,663618  	21,556967  	32,424821  	47,312267  	45,161632  	47,008139  	52,629806  	63,331237  	61,947473  	64,469485  	71,189736  	25,731962  	23,302646  	19,458661  	73,051901  	0,020135  	0,010202  	-2312,434763  	-27696,220503  	-0,093548  	-0,049993  	0,223604  	0,113302  	-2,572722  	4692,445939  	1054,379460  	0,152925  	-0,047945  
117,594000  	9,949611  	64,094558  	957,045375  	956,927186  	80,287623  	74,868253  	0,004010  	0,006194  	0,003960  	0,004062  	0,004243  	0,000001  	-0,000000  	24,994395  	19,670065  	21,560795  	32,430241  	47,318306  	45,165188  	47,013463  	52,633741  	63,336623  	61,947927  	64,473054  	71,194016  	25,740602  	23,303211  	19,459116  	73,042853  	0,057205  	0,028986  	-6571,049642  	-1,916507  	-0,013761  	-0,049983  	0,218397  	0,110663  	-2,514700  	4707,912127  	1136,747114  	0,164871  	-0,047937  
118,593000  	9,951019  	64,095367  	357,499067  	357,439972  	80,282437  	74,881915  	0,004008  	0,006190  	0,003961  	0,003953  	0,004311  	0,000005  	-0,000000  	24,994737  	19,663734  	21,562712  	32,433568  	47,321156  	45,171829  	47,009238  	52,638311  	63,336974  	61,945479  	64,477263  	71,199080  	25,739289  	23,293912  	19,460912  	73,031697  	-0,031050  	-0,015733  	3566,611132  	-1,683453  	-0,026823  	-0,049941  	0,272408  	0,138031  	-3,125703  	4698,856816  	1109,583088  	0,160931  	-0,047900  
119,596000  	9,952120  	64,097139  	357,499067  	357,439972  	80,275781  	74,897854  	0,004006  	0,006183  	0,003961  	0,004082  	0,004232  	0,000000  	-0,000000  	24,993027  	19,663313  	21,561813  	32,435115  	47,320630  	45,171717  	47,006838  	52,637679  	63,333386  	61,947442  	64,480933  	71,197347  	25,725795  	23,278511  	19,458338  	73,043050  	0,072827  	0,036902  	-8365,580271  	-1,685124  	-0,026850  	-0,049996  	0,209849  	0,106332  	-2,397812  	4684,210559  	1059,788258  	0,153709  	-0,047948  
120,594000  	9,952671  	64,096766  	-242,047242  	956,927186  	80,268095  	74,893799  	0,004010  	0,006184  	0,003962  	0,004063  	0,004269  	0,000001  	-0,000000  	24,993267  	19,675216  	21,565222  	32,439112  	47,322026  	45,175667  	47,006585  	52,641972  	63,344920  	61,949275  	64,485877  	71,195105  	25,731507  	23,280170  	19,459242  	73,056006  	0,057518  	0,029145  	-6606,862448  	34186,406612  	-0,026848  	-0,049989  	0,238918  	0,121062  	-2,728121  	4686,316626  	1132,778779  	0,164296  	-0,047942  
121,595000  	9,954812  	64,089460  	1256,818530  	1256,670793  	80,264096  	74,894174  	0,004009  	0,006196  	0,003964  	0,004026  	0,004200  	0,000001  	-0,000000  	25,005416  	19,674769  	21,562986  	32,440884  	47,325132  	45,179579  	47,010545  	52,649609  	63,351820  	61,955048  	64,489839  	71,200485  	25,731682  	23,279126  	19,466455  	73,057089  	0,027446  	0,013907  	-3152,120243  	-1,993052  	-0,011066  	-0,049986  	0,184838  	0,093659  	-2,108876  	4711,530714  	1129,149377  	0,163769  	-0,047939  
122,594000  	9,955485  	64,093253  	1256,818530  	657,183579  	80,264096  	74,907275  	0,004008  	0,006166  	0,003966  	0,003992  	0,004230  	0,000002  	-0,000000  	25,001925  	19,661769  	21,558139  	32,433887  	47,321480  	45,173324  	47,003793  	52,643880  	63,337511  	61,947191  	64,482165  	71,201701  	25,724010  	23,260865  	19,454735  	73,048424  	0,000120  	0,000061  	-13,816536  	-9721,422833  	-0,013758  	-0,049972  	0,208474  	0,105636  	-2,372757  	4646,710961  	1099,888207  	0,159525  	-0,047928  
123,597000  	9,956678  	64,090455  	1256,818530  	657,183579  	80,260784  	74,914324  	0,004012  	0,006192  	0,003963  	0,004056  	0,004230  	0,000001  	-0,000000  	24,996729  	19,667181  	21,568313  	32,436483  	47,324088  	45,177237  	47,009799  	52,649543  	63,341119  	61,947159  	64,487261  	71,205000  	25,731916  	23,257174  	19,462685  	73,044714  	0,052381  	0,026542  	-6015,685715  	-9723,618690  	-0,013762  	-0,049985  	0,208756  	0,105778  	-2,371366  	4702,987594  	1174,891140  	0,170404  	-0,047939  
124,592000  	9,957290  	64,095615  	1256,818530  	1256,670793  	80,255972  	74,897792  	0,004009  	0,006199  	0,003963  	0,003998  	0,004265  	0,000001  	-0,000001  	25,003646  	19,673352  	21,564095  	32,448854  	47,326804  	45,183268  	47,019729  	52,655114  	63,344672  	61,955934  	64,496199  	71,201196  	25,713671  	23,250253  	19,467535  	73,046764  	0,004669  	0,002366  	-536,251794  	-1,992962  	-0,011065  	-0,049983  	0,236180  	0,119674  	-2,688762  	4718,666723  	1118,098766  	0,162167  	-0,047937  
125,595000  	9,959400  	64,107709  	1256,818530  	1256,670793  	80,256035  	74,892209  	0,004008  	0,006171  	0,003962  	0,004015  	0,004257  	0,000000  	-0,000000  	24,995291  	19,668073  	21,562208  	32,446436  	47,327356  	45,174756  	47,013229  	52,638632  	63,343300  	61,947969  	64,488335  	71,193710  	25,705961  	23,246712  	19,458771  	73,041454  	0,018817  	0,009535  	-2161,626989  	-1,993414  	-0,011068  	-0,049996  	0,229862  	0,116473  	-2,619596  	4656,364771  	1089,720232  	0,158051  	-0,047948  
126,591000  	9,960991  	64,103356  	657,272221  	657,183579  	80,257909  	74,900256  	0,004008  	0,006162  	0,003964  	0,003959  	0,004175  	0,000002  	-0,000000  	24,991631  	19,665879  	21,554313  	32,440122  	47,328251  	45,168408  	47,009133  	52,641974  	63,345371  	61,947420  	64,493843  	71,196203  	25,705246  	23,235165  	19,449263  	73,039543  	-0,026646  	-0,013502  	3060,693968  	-1,809841  	-0,018192  	-0,049975  	0,164777  	0,083494  	-1,875707  	4638,322772  	1101,582869  	0,159771  	-0,047930  
127,593000  	9,960349  	64,102704  	657,272221  	657,183579  	80,259284  	74,885658  	0,004007  	0,006216  	0,003960  	0,004042  	0,004276  	0,000001  	-0,000000  	24,992778  	19,678071  	21,560994  	32,446022  	47,328350  	45,175541  	47,018265  	52,651806  	63,351199  	61,953736  	64,489734  	71,199243  	25,709870  	23,230790  	19,461535  	73,050343  	0,040459  	0,020501  	-4647,266751  	-1,810186  	-0,018196  	-0,049985  	0,245241  	0,124266  	-2,799968  	4754,607109  	1067,273017  	0,154795  	-0,047939  
128,598000  	9,960899  	64,105253  	57,725912  	1256,670793  	80,258847  	74,887904  	0,004005  	0,006209  	0,003964  	0,003976  	0,004270  	0,000000  	-0,000000  	25,003702  	19,677589  	21,583092  	32,455475  	47,340413  	45,183078  	47,023511  	52,656725  	63,354353  	61,963495  	64,509476  	71,209058  	25,722044  	23,237096  	19,468325  	73,045495  	-0,013084  	-0,006630  	1502,940448  	24489,186979  	-0,018200  	-0,049996  	0,239846  	0,121532  	-2,736999  	4739,029145  	1030,484720  	0,149459  	-0,047948  
129,594000  	9,961756  	64,101926  	1256,818530  	1256,670793  	80,256347  	74,884660  	0,004010  	0,006155  	0,003962  	0,004013  	0,004229  	0,000001  	-0,000000  	24,987095  	19,664611  	21,560441  	32,447563  	47,318854  	45,168972  	47,006160  	52,657837  	63,351434  	61,948041  	64,489431  	71,201429  	25,709872  	23,213363  	19,457124  	73,039792  	0,016984  	0,008606  	-1950,715228  	-1,992903  	-0,011065  	-0,049982  	0,207264  	0,105022  	-2,365521  	4623,501068  	1141,146175  	0,165509  	-0,047936  
130,595000  	9,962551  	64,101989  	1256,818530  	1256,670793  	80,252473  	74,902939  	0,004007  	0,006167  	0,003963  	0,004084  	0,004253  	0,000001  	-0,000000  	24,990955  	19,655141  	21,558403  	32,439829  	47,325763  	45,170588  	47,009293  	52,649797  	63,345801  	61,943697  	64,496939  	71,194961  	25,701441  	23,208683  	19,458213  	73,049866  	0,074760  	0,037881  	-8586,670231  	-1,993187  	-0,011066  	-0,049990  	0,226284  	0,114660  	-2,571958  	4648,408125  	1067,117673  	0,154772  	-0,047942  
131,592000  	9,963377  	64,100496  	357,499067  	1256,670793  	80,248630  	74,908491  	0,004007  	0,006202  	0,003963  	0,003900  	0,004294  	0,000003  	-0,000000  	25,001222  	19,670092  	21,562847  	32,451557  	47,329428  	45,178179  	47,006696  	52,651646  	63,357953  	61,952715  	64,492429  	71,198739  	25,727690  	23,229447  	19,455635  	73,053419  	-0,074029  	-0,037511  	8502,401755  	16221,161713  	-0,015666  	-0,049966  	0,259256  	0,131367  	-2,941543  	4724,807356  	1080,992721  	0,156785  	-0,047922  
132,595000  	9,963377  	64,103916  	957,045375  	1256,670793  	80,244693  	74,902627  	0,004008  	0,006195  	0,003963  	0,004109  	0,004150  	0,000000  	-0,000000  	25,007117  	19,670898  	21,568809  	32,458559  	47,331999  	45,183532  	47,009870  	52,663076  	63,364160  	61,955911  	64,505007  	71,207003  	25,721376  	23,206041  	19,457964  	73,051586  	0,094701  	0,047986  	-10877,246323  	4416,451670  	-0,012270  	-0,049996  	0,145392  	0,073671  	-1,650228  	4708,384701  	1098,906715  	0,159383  	-0,047948  
133,593000  	9,964937  	64,096704  	1256,818530  	1256,670793  	80,242662  	74,890649  	0,004007  	0,006174  	0,003962  	0,003979  	0,004288  	0,000000  	-0,000000  	25,005339  	19,674015  	21,573612  	32,465888  	47,338221  	45,188853  	47,006770  	52,664670  	63,365532  	61,956332  	64,513312  	71,206264  	25,726571  	23,207986  	19,464829  	73,058249  	-0,010091  	-0,005113  	1158,888737  	-1,993471  	-0,011068  	-0,049998  	0,254084  	0,128746  	-2,889260  	4663,035281  	1069,751460  	0,155154  	-0,047949  
134,595000  	9,966406  	64,093222  	1256,818530  	1256,670793  	80,240850  	74,878733  	0,004010  	0,006175  	0,003964  	0,004009  	0,004198  	-0,000000  	-0,000000  	25,002591  	19,666397  	21,562459  	32,454664  	47,324680  	45,185176  	47,005161  	52,656098  	63,365486  	61,957991  	64,505843  	71,205321  	25,727186  	23,192726  	19,451077  	73,052670  	0,013825  	0,007005  	-1587,495452  	-1,993629  	-0,011069  	-0,050002  	0,183045  	0,092750  	-2,085377  	4666,980708  	1136,605892  	0,164851  	-0,047953  
135,594000  	9,966498  	64,089398  	1256,818530  	1256,670793  	80,235882  	74,865882  	0,004008  	0,006186  	0,003962  	0,003979  	0,004330  	0,000001  	-0,000000  	25,002644  	19,662807  	21,568239  	32,460908  	47,335457  	45,191289  	47,013735  	52,664728  	63,365437  	61,962329  	64,503073  	71,200729  	25,728209  	23,182496  	19,454610  	73,052805  	-0,010670  	-0,005407  	1225,170259  	-1,993009  	-0,011065  	-0,049985  	0,287718  	0,145789  	-3,282702  	4690,271957  	1098,214728  	0,159283  	-0,047938  
136,593000  	9,967782  	64,087719  	1256,818530  	1256,670793  	80,233507  	74,868565  	0,004009  	0,006187  	0,003961  	0,004018  	0,004233  	0,000001  	-0,000000  	25,008044  	19,667676  	21,575209  	32,458756  	47,339338  	45,185285  	47,011575  	52,668775  	63,370648  	61,960078  	64,507115  	71,198679  	25,720898  	23,191358  	19,461646  	73,045169  	0,021468  	0,010878  	-2464,798349  	-1,993069  	-0,011066  	-0,049986  	0,211160  	0,106996  	-2,406955  	4693,004114  	1113,551422  	0,161507  	-0,047940  
137,593000  	9,967660  	64,092040  	1256,818530  	956,927186  	80,237944  	74,881042  	0,004004  	0,006184  	0,003963  	0,003982  	0,004261  	0,000000  	-0,000000  	25,015213  	19,673647  	21,574860  	32,470569  	47,340925  	45,191609  	47,013766  	52,676187  	63,376399  	61,961723  	64,515572  	71,210329  	25,721695  	23,186279  	19,458257  	73,058393  	-0,007573  	-0,003837  	869,590673  	-4420,365558  	-0,012270  	-0,049997  	0,233285  	0,118207  	-2,655164  	4684,878388  	1020,436785  	0,148002  	-0,047948  
138,593000  	9,969312  	64,089367  	1256,818530  	357,439972  	80,240506  	74,880168  	0,004008  	0,006115  	0,003962  	0,004009  	0,004272  	0,000000  	-0,000000  	24,998117  	19,659751  	21,565324  	32,454972  	47,331062  	45,184388  	47,004980  	52,651435  	63,362317  	61,953124  	64,500668  	71,198990  	25,709130  	23,184055  	19,451909  	73,052426  	0,014266  	0,007229  	-1637,994010  	-16233,507273  	-0,015674  	-0,049997  	0,241794  	0,122519  	-2,753776  	4536,859432  	1090,546380  	0,158170  	-0,047949  
139,594000  	9,970230  	64,093470  	1256,818530  	357,439972  	80,235788  	74,885190  	0,004008  	0,006154  	0,003962  	0,003990  	0,004260  	0,000001  	-0,000000  	24,997930  	19,655791  	21,559841  	32,447400  	47,329438  	45,178235  	47,000528  	52,652972  	63,362904  	61,948473  	64,495842  	71,196051  	25,706002  	23,192665  	19,445676  	73,048745  	-0,001098  	-0,000556  	126,055958  	-16229,739883  	-0,015671  	-0,049985  	0,232184  	0,117649  	-2,639524  	4621,781974  	1099,443358  	0,159461  	-0,047938  
140,594000  	9,970535  	64,096020  	1256,818530  	-242,047242  	80,227665  	74,874460  	0,004008  	0,005971  	0,003960  	0,004054  	0,004171  	0,000002  	-0,000000  	25,005639  	19,659012  	21,563120  	32,450866  	47,337274  	45,180513  	47,008086  	52,667629  	63,368377  	61,958829  	64,505860  	71,203692  	25,706348  	23,203288  	19,451586  	73,048364  	0,050648  	0,025664  	-5815,724180  	-35494,730553  	-0,021685  	-0,049977  	0,161874  	0,082023  	-1,841115  	4225,419002  	1102,966843  	0,159972  	-0,047931  
141,597000  	9,971300  	64,089833  	57,725912  	57,696365  	80,218291  	74,875926  	0,004007  	0,006022  	0,003965  	0,004094  	0,004237  	-0,000000  	-0,000000  	25,017265  	19,668274  	21,572350  	32,454644  	47,342876  	45,185189  	47,010123  	52,672481  	63,380925  	61,959729  	64,509099  	71,209075  	25,716623  	23,227642  	19,464532  	73,054042  	0,082900  	0,042006  	-9517,927069  	-1,525100  	-0,051182  	-0,050003  	0,213851  	0,108360  	-2,427365  	4335,455883  	1087,651332  	0,157750  	-0,047954  
142,593000  	9,971300  	64,088154  	1256,818530  	1256,670793  	80,215292  	74,868440  	0,004007  	0,006015  	0,003961  	0,003964  	0,004264  	0,000002  	-0,000000  	25,012996  	19,672235  	21,573208  	32,456171  	47,342865  	45,186470  	47,007077  	52,667711  	63,385308  	61,952666  	64,512747  	71,213094  	25,711339  	23,230940  	19,467341  	73,061838  	-0,022428  	-0,011364  	2574,934426  	-1,992778  	-0,011064  	-0,049978  	0,235473  	0,119316  	-2,675032  	4321,974789  	1076,508927  	0,156134  	-0,047933  
143,596000  	9,971392  	64,087222  	1256,818530  	1256,670793  	80,211542  	74,831228  	0,004008  	0,005996  	0,003964  	0,003999  	0,004229  	0,000003  	-0,000000  	25,005536  	19,671395  	21,569223  	32,456303  	47,337098  	45,182831  	47,003453  	52,664794  	63,383123  	61,951136  	64,511665  	71,205918  	25,694976  	23,220510  	19,460484  	73,060686  	0,006103  	0,003093  	-700,705679  	-1,992271  	-0,011061  	-0,049964  	0,207854  	0,105321  	-2,376043  	4279,560563  	1102,543178  	0,159910  	-0,047920  
144,593000  	9,972554  	64,094745  	57,725912  	57,696365  	80,205669  	74,797166  	0,004010  	0,006080  	0,003962  	0,004075  	0,004242  	0,000003  	-0,000000  	25,007389  	19,674369  	21,569344  	32,454883  	47,333199  	45,182694  	47,007441  	52,670103  	63,383885  	61,954052  	64,506452  	71,197166  	25,690831  	23,224118  	19,457539  	73,057844  	0,067486  	0,034196  	-7748,783306  	-1,524120  	-0,051149  	-0,049967  	0,218293  	0,110611  	-2,508434  	4461,994651  	1143,299808  	0,165822  	-0,047923  
145,593000  	9,972616  	64,097170  	957,045375  	1256,670793  	80,200763  	74,758956  	0,004007  	0,006186  	0,003964  	0,004048  	0,004205  	0,000001  	-0,000000  	25,008560  	19,677233  	21,568703  	32,460094  	47,336562  	45,188202  	47,013222  	52,675228  	63,387515  	61,962814  	64,509859  	71,205286  	25,692750  	23,225228  	19,460785  	73,059053  	0,045512  	0,023061  	-5225,932669  	4415,645016  	-0,012267  	-0,049986  	0,188512  	0,095521  	-2,179543  	4689,036756  	1084,113724  	0,157237  	-0,047939  
146,594000  	9,973533  	64,099035  	357,499067  	657,183579  	80,200326  	74,729699  	0,004008  	0,006187  	0,003965  	0,004077  	0,004287  	0,000000  	-0,000000  	25,012892  	19,676951  	21,569705  	32,462974  	47,338301  	45,186694  	47,007373  	52,673735  	63,390513  	61,965329  	64,515986  	71,216938  	25,694940  	23,223191  	19,465768  	73,064723  	0,068933  	0,034929  	-7915,336293  	7099,798597  	-0,021695  	-0,049997  	0,253768  	0,128586  	-2,949547  	4692,682934  	1100,220078  	0,159573  	-0,047949  
147,594000  	9,973533  	64,091387  	1256,818530  	-242,047242  	80,203169  	74,709300  	0,004010  	0,006193  	0,003965  	0,003996  	0,004225  	0,000000  	-0,000000  	25,015691  	19,673561  	21,569359  	32,453176  	47,332807  	45,181478  	46,999044  	52,669748  	63,389397  	61,952828  	64,512269  	71,212097  	25,695708  	23,220578  	19,464316  	73,067456  	0,003706  	0,001878  	-425,536531  	-35508,957094  	-0,021694  	-0,049999  	0,204836  	0,103792  	-2,390910  	4703,844312  	1131,331255  	0,164086  	-0,047951  
148,593000  	9,973105  	64,086289  	1256,818530  	956,927186  	80,209105  	74,727328  	0,004006  	0,006202  	0,003961  	0,003973  	0,004241  	0,000001  	-0,000000  	25,008554  	19,667874  	21,561491  	32,449418  	47,330183  	45,184907  	46,999501  	52,666484  	63,388301  	61,947785  	64,504504  	71,200476  	25,686688  	23,207842  	19,456433  	73,062853  	-0,015387  	-0,007797  	1766,416409  	-4419,619379  	-0,012268  	-0,049987  	0,217215  	0,110065  	-2,529837  	4724,276771  	1049,832116  	0,152265  	-0,047940  
149,595000  	9,974268  	64,096797  	57,725912  	956,927186  	80,211324  	74,747915  	0,004007  	0,006194  	0,003962  	0,004024  	0,004244  	0,000002  	-0,000000  	25,007123  	19,671423  	21,566539  	32,450521  	47,335894  	45,184236  	47,005398  	52,665442  	63,387453  	61,949547  	64,506641  	71,201491  	25,680357  	23,215922  	19,462500  	73,076211  	0,026156  	0,013253  	-3003,241204  	21296,572758  	-0,021688  	-0,049980  	0,219145  	0,111043  	-2,543771  	4706,594862  	1073,522084  	0,155701  	-0,047934  
150,593000  	9,974573  	64,091574  	1256,818530  	-242,047242  	80,212011  	74,774989  	0,004009  	0,006184  	0,003961  	0,004010  	0,004252  	-0,000000  	-0,000000  	25,004278  	19,676573  	21,568514  	32,458964  	47,337336  	45,180464  	47,002608  	52,664230  	63,393134  	61,949094  	64,504477  	71,204809  	25,678741  	23,214357  	19,465491  	73,082697  	0,015111  	0,007657  	-1734,927752  	-35512,987643  	-0,021697  	-0,050005  	0,225816  	0,114423  	-2,608552  	4685,620499  	1120,111178  	0,162458  	-0,047956  
151,594000  	9,974206  	64,089802  	1256,818530  	657,183579  	80,215261  	74,791583  	0,004011  	0,006094  	0,003964  	0,004011  	0,004198  	0,000000  	-0,000000  	25,005372  	19,667959  	21,565777  	32,453176  	47,337492  	45,179174  	47,001356  	52,660402  	63,394284  	61,942861  	64,503142  	71,207155  	25,661582  	23,206438  	19,458371  	73,085508  	0,015728  	0,007970  	-1805,676554  	-9725,691328  	-0,013765  	-0,049997  	0,182712  	0,092581  	-2,105451  	4490,832986  	1172,970522  	0,170125  	-0,047949  
152,593000  	9,973289  	64,086507  	1256,818530  	1256,670793  	80,218198  	74,806991  	0,004008  	0,005964  	0,003965  	0,004039  	0,004223  	0,000001  	-0,000000  	25,007713  	19,682212  	21,578868  	32,445319  	47,343448  	45,179117  	47,004592  	52,661939  	63,402053  	61,948840  	64,509319  	71,204264  	25,665759  	23,216539  	19,460273  	73,098621  	0,038293  	0,019403  	-4396,028861  	-1,993044  	-0,011065  	-0,049986  	0,202996  	0,102860  	-2,333821  	4211,952765  	1096,075216  	0,158972  	-0,047939  
153,593000  	9,973564  	64,077398  	1256,818530  	1256,670793  	80,220853  	74,808114  	0,004009  	0,006076  	0,003962  	0,004022  	0,004240  	0,000002  	-0,000000  	25,008836  	19,681478  	21,574060  	32,454220  	47,341029  	45,183427  	46,994485  	52,673614  	63,403152  	61,944987  	64,505386  	71,213603  	25,657094  	23,213371  	19,456956  	73,104199  	0,024761  	0,012547  	-2842,106555  	-1,992831  	-0,011064  	-0,049980  	0,216264  	0,109583  	-2,487073  	4452,985325  	1124,510239  	0,163096  	-0,047934  
154,594000  	9,975032  	64,071056  	1256,818530  	1256,670793  	80,228102  	74,802250  	0,004004  	0,006126  	0,003963  	0,004011  	0,004275  	0,000001  	-0,000000  	25,007375  	19,665271  	21,564681  	32,443635  	47,332369  	45,170505  	46,992564  	52,666770  	63,397024  	61,937349  	64,499506  	71,199012  	25,643965  	23,198383  	19,451430  	73,094121  	0,015916  	0,008065  	-1826,579957  	-1,993098  	-0,011066  	-0,049987  	0,244184  	0,123730  	-2,814951  	4560,476814  	1007,077196  	0,146064  	-0,047940  
155,597000  	9,974757  	64,070310  	1256,818530  	1256,670793  	80,236476  	74,772306  	0,004009  	0,006139  	0,003964  	0,003984  	0,004181  	0,000002  	-0,000000  	25,010576  	19,672927  	21,568665  	32,448531  	47,325662  	45,172497  	46,990482  	52,658132  	63,394132  	61,937299  	64,501416  	71,203157  	25,643237  	23,202459  	19,462204  	73,101927  	-0,006628  	-0,003359  	760,703800  	-1,992789  	-0,011064  	-0,049978  	0,169286  	0,085778  	-1,965300  	4587,745325  	1119,207358  	0,162327  	-0,047933  
156,594000  	9,975797  	64,057875  	1256,818530  	1256,670793  	80,242349  	74,766567  	0,004009  	0,006165  	0,003963  	0,004037  	0,004209  	0,000001  	-0,000000  	25,006693  	19,678370  	21,574697  	32,447026  	47,321788  	45,176077  	46,996228  	52,662058  	63,401267  	61,938409  	64,502470  	71,218389  	25,630600  	23,192899  	19,464629  	73,101260  	0,036934  	0,018715  	-4237,609934  	-1,993160  	-0,011066  	-0,049989  	0,191661  	0,097116  	-2,229783  	4644,569522  	1120,054689  	0,162450  	-0,047942  
157,595000  	9,974329  	64,047056  	-242,047242  	1256,670793  	80,248411  	74,759393  	0,004008  	0,006172  	0,003963  	0,003947  	0,004285  	0,000003  	-0,000000  	25,012193  	19,678334  	21,565294  	32,434282  	47,319383  	45,164491  	46,985789  	52,654479  	63,387673  	61,931762  	64,501608  	71,204548  	25,633172  	23,179073  	19,453308  	73,096372  	-0,035983  	-0,018233  	4127,812769  	35489,028832  	-0,021684  	-0,049969  	0,251614  	0,127495  	-2,934355  	4660,176491  	1092,241043  	0,158416  	-0,047924  
158,594000  	9,973778  	64,045439  	357,499067  	1256,670793  	80,253785  	74,780603  	0,004009  	0,006193  	0,003963  	0,004023  	0,004252  	0,000002  	-0,000000  	25,004863  	19,670079  	21,566673  	32,441144  	47,312481  	45,164468  	46,983378  	52,650415  	63,393313  	61,921902  	64,486218  	71,205937  	25,630840  	23,176071  	19,457861  	73,102702  	0,024884  	0,012609  	-2854,466151  	16225,043658  	-0,015670  	-0,049979  	0,225588  	0,114307  	-2,623254  	4704,127998  	1129,099950  	0,163762  	-0,047934  
159,594000  	9,974329  	64,035274  	1256,818530  	1256,670793  	80,260503  	74,806180  	0,004008  	0,006197  	0,003962  	0,003978  	0,004213  	-0,000000  	-0,000000  	25,011293  	19,683965  	21,571097  	32,447861  	47,329568  	45,163580  	46,993836  	52,661338  	63,402523  	61,928819  	64,495801  	71,208998  	25,621324  	23,178834  	19,463934  	73,105968  	-0,010808  	-0,005477  	1239,580602  	-1,993650  	-0,011069  	-0,050003  	0,194682  	0,098647  	-2,256070  	4712,742569  	1092,445814  	0,158446  	-0,047954  
160,598000  	9,974023  	64,028248  	1256,818530  	57,696365  	80,264877  	74,820404  	0,004005  	0,006191  	0,003963  	0,003994  	0,004276  	-0,000001  	-0,000000  	25,014300  	19,676419  	21,575654  	32,443485  	47,325013  	45,162891  	46,989366  	52,648725  	63,403997  	61,924822  	64,493959  	71,210865  	25,634128  	23,179116  	19,467740  	73,125951  	0,001858  	0,000941  	-213,017646  	-24497,580203  	-0,018203  	-0,050010  	0,244563  	0,123922  	-2,829011  	4699,722023  	1042,672168  	0,151227  	-0,047960  
161,593000  	9,973870  	64,031139  	57,725912  	1256,670793  	80,268283  	74,832600  	0,004009  	0,006186  	0,003961  	0,004006  	0,004267  	0,000002  	-0,000000  	25,021585  	19,676953  	21,568862  	32,442258  	47,317751  	45,162788  	46,985192  	52,648789  	63,399030  	61,922705  	64,492052  	71,209927  	25,633438  	23,184330  	19,462708  	73,120905  	0,011201  	0,005676  	-1284,577246  	24479,755102  	-0,018193  	-0,049974  	0,237340  	0,120262  	-2,741025  	4689,164804  	1115,754483  	0,161827  	-0,047929  
162,594000  	9,974237  	64,026911  	657,272221  	657,183579  	80,272657  	74,841583  	0,004008  	0,006208  	0,003965  	0,003992  	0,004340  	0,000000  	-0,000000  	25,003100  	19,676103  	21,574082  	32,432766  	47,308344  	45,155652  	46,982481  	52,644246  	63,396950  	61,921665  	64,485333  	71,203468  	25,626158  	23,174077  	19,454090  	73,117669  	-0,000222  	-0,000113  	25,506275  	-1,810541  	-0,018199  	-0,049996  	0,295563  	0,149764  	-3,410547  	4736,241100  	1088,385686  	0,157857  	-0,047948  
163,598000  	9,973870  	64,025978  	657,272221  	657,183579  	80,274344  	74,848789  	0,004007  	0,006080  	0,003962  	0,004051  	0,004213  	0,000002  	-0,000000  	25,009266  	19,684162  	21,572869  	32,438199  	47,317416  	45,167370  	46,984104  	52,644850  	63,404625  	61,924831  	64,496694  	71,216389  	25,635170  	23,195871  	19,468779  	73,129836  	0,047854  	0,024248  	-5487,491211  	-1,809965  	-0,018193  	-0,049978  	0,194682  	0,098647  	-2,244187  	4461,858822  	1087,255911  	0,157693  	-0,047933  
164,593000  	9,975461  	64,022124  	1256,818530  	57,696365  	80,276156  	74,840429  	0,004010  	0,005996  	0,003964  	0,004017  	0,004201  	0,000001  	-0,000000  	25,014163  	19,681685  	21,572041  	32,428529  	47,321653  	45,157175  	46,981415  	52,642421  	63,393977  	61,913370  	64,484231  	71,213772  	25,617703  	23,200212  	19,463399  	73,130656  	0,020383  	0,010328  	-2337,140786  	-24485,908965  	-0,018194  	-0,049983  	0,185516  	0,094002  	-2,142530  	4279,480621  	1133,675538  	0,164426  	-0,047937  
165,592000  	9,975399  	64,016870  	57,725912  	956,927186  	80,273469  	74,844048  	0,004006  	0,006034  	0,003962  	0,003896  	0,004230  	-0,000001  	-0,000000  	25,009453  	19,675683  	21,571479  	32,425875  	47,309211  	45,146553  	46,974191  	52,633169  	63,392097  	61,900912  	64,479694  	71,210137  	25,622054  	23,195812  	19,460922  	73,127370  	-0,077394  	-0,039216  	8873,166148  	21309,477978  	-0,021701  	-0,050013  	0,208359  	0,105577  	-2,403562  	4362,877202  	1054,584232  	0,152955  	-0,047963  
166,594000  	9,975032  	64,017802  	657,272221  	-242,047242  	80,272969  	74,831009  	0,004009  	0,006173  	0,003965  	0,004062  	0,004243  	0,000002  	-0,000000  	25,003565  	19,679556  	21,569309  	32,429077  	47,304847  	45,147077  	46,975148  	52,636607  	63,393940  	61,903976  	64,475317  	71,205193  	25,623527  	23,186420  	19,460697  	73,113691  	0,056498  	0,028628  	-6477,630568  	-32732,863357  	-0,035210  	-0,049981  	0,218740  	0,110837  	-2,529134  	4662,520968  	1112,520503  	0,161357  	-0,047935  
167,593000  	9,974390  	64,019108  	657,272221  	657,183579  	80,276625  	74,814571  	0,004008  	0,006177  	0,003966  	0,004039  	0,004177  	0,000003  	-0,000000  	25,005830  	19,681581  	21,564598  	32,425485  	47,310743  	45,147914  	46,981630  	52,633343  	63,393679  	61,905787  	64,478912  	71,204217  	25,630987  	23,183860  	19,463581  	73,122222  	0,037962  	0,019236  	-4352,599801  	-1,809591  	-0,018190  	-0,049967  	0,166311  	0,084271  	-1,930028  	4669,354897  	1098,391255  	0,159308  	-0,047923  
168,593000  	9,974451  	64,021906  	1256,818530  	57,696365  	80,283249  	74,788183  	0,004008  	0,006200  	0,003961  	0,003977  	0,004266  	0,000000  	-0,000000  	25,008533  	19,673544  	21,565278  	32,423281  	47,305076  	45,145658  	46,976228  	52,630599  	63,393889  	61,899861  	64,481970  	71,201829  	25,641675  	23,204479  	19,461144  	73,131612  	-0,012283  	-0,006224  	1408,401793  	-24492,195685  	-0,018199  	-0,049997  	0,236683  	0,119929  	-2,763280  	4721,010492  	1097,776940  	0,159219  	-0,047949  
169,594000  	9,974359  	64,020507  	57,725912  	1256,670793  	80,287373  	74,787216  	0,004007  	0,006192  	0,003961  	0,004066  	0,004199  	0,000002  	-0,000000  	25,006928  	19,669818  	21,567766  	32,427706  	47,301584  	45,145613  	46,975126  	52,632680  	63,397709  	61,896954  	64,483709  	71,202706  	25,643169  	23,220975  	19,463184  	73,129008  	0,059780  	0,030291  	-6854,244917  	24478,919344  	-0,018192  	-0,049972  	0,184064  	0,093267  	-2,150948  	4703,057632  	1082,630895  	0,157022  	-0,047928  
170,593000  	9,973136  	64,024673  	1256,818530  	657,183579  	80,287686  	74,808801  	0,004006  	0,006193  	0,003961  	0,003997  	0,004260  	-0,000000  	-0,000000  	25,007632  	19,676532  	21,573292  	32,428888  	47,308612  	45,149567  	46,981027  	52,630058  	63,398973  	61,895743  	64,482305  	71,208286  	25,646704  	23,236716  	19,466627  	73,127391  	0,004040  	0,002047  	-463,309976  	-9726,410697  	-0,013766  	-0,050001  	0,232296  	0,117706  	-2,704085  	4705,779884  	1058,849132  	0,153573  	-0,047952  
171,593000  	9,972769  	64,026445  	1256,818530  	-242,047242  	80,285342  	74,835750  	0,004011  	0,006193  	0,003961  	0,003992  	0,004181  	-0,000000  	-0,000000  	25,009193  	19,681419  	21,573862  	32,429095  	47,309595  	45,153101  	46,975791  	52,633488  	63,397831  	61,896673  	64,477175  	71,211685  	25,651173  	23,257911  	19,462711  	73,124998  	0,000353  	0,000179  	-40,483699  	-35511,508042  	-0,021696  	-0,050003  	0,169712  	0,085994  	-1,965007  	4705,221002  	1172,342085  	0,170034  	-0,047954  
172,594000  	9,971790  	64,022590  	1256,818530  	956,927186  	80,284530  	74,853717  	0,004006  	0,006183  	0,003963  	0,003964  	0,004259  	0,000001  	-0,000000  	25,006846  	19,675186  	21,564170  	32,430604  	47,303812  	45,149728  	46,972494  	52,635856  	63,393264  	61,895997  	64,471941  	71,207192  	25,646176  	23,264325  	19,459708  	73,126628  	-0,022515  	-0,011408  	2581,753349  	-4419,692864  	-0,012268  	-0,049988  	0,231500  	0,117303  	-2,671198  	4682,862874  	1055,650457  	0,153109  	-0,047941  
173,597000  	9,971239  	64,028497  	1256,818530  	1256,670793  	80,286655  	74,860517  	0,004007  	0,006200  	0,003962  	0,003989  	0,004280  	-0,000001  	-0,000000  	25,007511  	19,668207  	21,562868  	32,424038  	47,301210  	45,144428  	46,976321  	52,628126  	63,389259  	61,887010  	64,467383  	71,196168  	25,646854  	23,268969  	19,456135  	73,130777  	-0,002535  	-0,001285  	290,737016  	-1,993907  	-0,011070  	-0,050010  	0,247881  	0,125603  	-2,857749  	4719,482409  	1086,542740  	0,157590  	-0,047960  
174,594000  	9,971117  	64,034590  	1256,818530  	657,183579  	80,290966  	74,872994  	0,004011  	0,006094  	0,003961  	0,004091  	0,004198  	-0,000001  	-0,000000  	25,012320  	19,676672  	21,571563  	32,422238  	47,305222  	45,149150  	46,971121  	52,634070  	63,398473  	61,892138  	64,469449  	71,197444  	25,660782  	23,284553  	19,456565  	73,128687  	0,080745  	0,040914  	-9261,085184  	-9727,354424  	-0,013767  	-0,050007  	0,182820  	0,092636  	-2,104509  	4492,278298  	1164,511333  	0,168898  	-0,047957  
175,594000  	9,970750  	64,033937  	1256,818530  	657,183579  	80,293279  	74,883568  	0,004006  	0,005958  	0,003962  	0,003938  	0,004253  	-0,000000  	-0,000000  	25,012373  	19,688396  	21,577972  	32,431414  	47,310898  	45,155336  	46,973652  	52,637247  	63,398450  	61,906587  	64,466795  	71,209071  	25,668646  	23,293414  	19,466902  	73,134620  	-0,043854  	-0,022221  	5029,846502  	-9726,321666  	-0,013765  	-0,050001  	0,226953  	0,114999  	-2,608560  	4197,791816  	1062,492656  	0,154102  	-0,047952  
176,594000  	9,969893  	64,034870  	1256,818530  	1256,670793  	80,292779  	74,888996  	0,004013  	0,006038  	0,003962  	0,004063  	0,004164  	0,000000  	-0,000000  	25,010829  	19,682840  	21,571621  	32,426445  	47,303605  	45,147623  	46,975069  	52,626574  	63,391866  	61,889072  	64,464696  	71,206599  	25,677109  	23,283211  	19,461227  	73,133974  	0,057764  	0,029270  	-6625,500510  	-1,993484  	-0,011068  	-0,049998  	0,156221  	0,079158  	-1,793616  	4371,638923  	1195,989687  	0,173464  	-0,047950  
177,597000  	9,970872  	64,029180  	1256,818530  	-242,047242  	80,290310  	74,882258  	0,004007  	0,006269  	0,003960  	0,003945  	0,004262  	0,000001  	-0,000000  	25,007240  	19,671178  	21,559895  	32,428571  	47,300539  	45,132492  	46,965190  	52,627457  	63,391274  	61,879966  	64,464761  	71,203916  	25,693514  	23,283121  	19,451355  	73,136912  	-0,037959  	-0,019234  	4353,343548  	-35500,518942  	-0,021689  	-0,049986  	0,233714  	0,118425  	-2,685454  	4867,761705  	1076,812554  	0,156178  	-0,047939  
178,592000  	9,970199  	64,030300  	1256,818530  	-242,047242  	80,288248  	74,862794  	0,004003  	0,006201  	0,003962  	0,004026  	0,004241  	0,000002  	-0,000000  	25,022107  	19,681815  	21,570923  	32,433002  	47,315839  	45,147310  	46,975680  	52,634988  	63,397799  	61,899161  	64,471685  	71,207178  	25,701816  	23,287782  	19,462670  	73,138455  	0,027472  	0,013920  	-3150,697471  	-35497,195689  	-0,021687  	-0,049980  	0,217020  	0,109966  	-2,501645  	4721,477407  	987,510907  	0,143226  	-0,047935  
179,598000  	9,969832  	64,036175  	1256,818530  	-242,047242  	80,286936  	74,850941  	0,004008  	0,006077  	0,003963  	0,003955  	0,004231  	-0,000000  	-0,000000  	25,015599  	19,688513  	21,589465  	32,428490  	47,317301  	45,138581  	46,982976  	52,633119  	63,398979  	61,892348  	64,476672  	71,204639  	25,710238  	23,289763  	19,465130  	73,139811  	-0,029843  	-0,015121  	3422,990512  	-35510,343083  	-0,021695  	-0,050001  	0,209206  	0,106006  	-2,416249  	4453,791813  	1101,978290  	0,159828  	-0,047952  
180,593000  	9,969281  	64,042952  	1256,818530  	956,927186  	80,284374  	74,856930  	0,004008  	0,005927  	0,003963  	0,004017  	0,004280  	0,000002  	-0,000000  	25,011637  	19,683106  	21,573311  	32,437455  	47,318191  	45,149984  	46,971601  	52,642675  	63,400077  	61,899404  	64,484424  	71,214941  	25,704030  	23,292154  	19,471646  	73,142109  	0,020350  	0,010311  	-2334,470642  	-4418,729792  	-0,012265  	-0,049976  	0,248195  	0,125762  	-2,862054  	4131,442564  	1096,971975  	0,159102  	-0,047931  
181,593000  	9,968272  	64,050662  	1256,818530  	1256,670793  	80,277937  	74,858427  	0,004005  	0,006070  	0,003962  	0,004020  	0,004205  	0,000002  	-0,000000  	25,008474  	19,679807  	21,564587  	32,421488  	47,304428  	45,134738  	46,962944  	52,626023  	63,395560  	61,890507  	64,477242  	71,205459  	25,697094  	23,290821  	19,460880  	73,140093  	0,022858  	0,011582  	-2622,665176  	-1,992749  	-0,011064  	-0,049977  	0,188929  	0,095732  	-2,175446  	4439,766694  	1042,905184  	0,151261  	-0,047932  
182,597000  	9,967660  	64,055823  	1256,818530  	1256,670793  	80,277750  	74,858490  	0,004008  	0,006020  	0,003962  	0,004003  	0,004239  	-0,000000  	-0,000000  	25,008780  	19,677222  	21,574272  	32,432176  	47,308032  	45,133733  	46,974752  	52,628750  	63,395475  	61,884393  	64,475654  	71,202799  	25,701215  	23,297168  	19,455900  	73,133782  	0,008702  	0,004410  	-998,592045  	-1,993588  	-0,011068  	-0,050001  	0,215422  	0,109156  	-2,480388  	4331,787774  	1094,083988  	0,158683  	-0,047952  
183,594000  	9,967752  	64,058527  	1256,818530  	1256,670793  	80,278281  	74,841521  	0,004010  	0,006109  	0,003962  	0,003973  	0,004214  	0,000002  	-0,000000  	25,017190  	19,677561  	21,577060  	32,436769  	47,318672  	45,147202  	46,976440  	52,631691  	63,406247  	61,892255  	64,475302  	71,210728  	25,696704  	23,297961  	19,464576  	73,126942  	-0,015266  	-0,007735  	1751,845044  	-1,992644  	-0,011063  	-0,049974  	0,196084  	0,099357  	-2,265016  	4523,064940  	1137,566201  	0,164990  	-0,047929  
184,596000  	9,967568  	64,054299  	1256,818530  	57,696365  	80,274282  	74,806773  	0,004004  	0,006134  	0,003959  	0,003955  	0,004254  	0,000000  	-0,000000  	25,009906  	19,671355  	21,573383  	32,424773  	47,309000  	45,137874  	46,968212  	52,623784  	63,395152  	61,887398  	64,484152  	71,201090  	25,695185  	23,285794  	19,459043  	73,127400  	-0,029823  	-0,015112  	3422,057024  	-24492,125733  	-0,018199  	-0,049997  	0,227746  	0,115401  	-2,645612  	4576,993559  	1007,811550  	0,146171  	-0,047949  
185,593000  	9,966345  	64,052217  	957,045375  	1256,670793  	80,273344  	74,783504  	0,004010  	0,006193  	0,003965  	0,003978  	0,004183  	0,000001  	-0,000000  	25,016045  	19,669255  	21,565982  	32,431216  	47,309627  	45,137144  	46,963782  	52,632357  	63,403135  	61,882852  	64,469698  	71,205239  	25,693659  	23,287859  	19,455850  	73,119824  	-0,010850  	-0,005498  	1245,000697  	4415,385296  	-0,012267  	-0,049983  	0,171254  	0,086776  	-1,997493  	4704,200864  	1140,249416  	0,165379  	-0,047936  
186,594000  	9,965977  	64,048735  	357,499067  	1256,670793  	80,271720  	74,786686  	0,004010  	0,006202  	0,003962  	0,003982  	0,004203  	0,000001  	-0,000000  	25,013151  	19,679083  	21,567180  	32,434235  	47,319662  	45,139702  	46,983128  	52,641257  	63,393213  	61,886616  	64,469239  	71,209614  	25,695603  	23,289751  	19,455838  	73,126096  	-0,008272  	-0,004192  	949,122735  	16228,305158  	-0,015673  	-0,049991  	0,186938  	0,094723  	-2,178522  	4724,834239  	1148,228451  	0,166536  	-0,047943  
187,593000  	9,965702  	64,046683  	1256,818530  	357,439972  	80,271720  	74,798788  	0,004006  	0,006194  	0,003965  	0,003971  	0,004238  	-0,000000  	-0,000000  	25,017063  	19,683681  	21,578333  	32,434584  	47,318188  	45,137699  	46,974153  	52,629136  	63,398370  	61,879475  	64,479420  	71,201600  	25,708370  	23,283669  	19,463559  	73,124689  	-0,016804  	-0,008515  	1927,988229  	-16235,573454  	-0,015676  	-0,050005  	0,214511  	0,108694  	-2,494336  	4706,157661  	1048,483447  	0,152070  	-0,047955  
188,594000  	9,965274  	64,052652  	1256,818530  	956,927186  	80,271595  	74,822681  	0,004008  	0,006178  	0,003962  	0,003986  	0,004243  	-0,000000  	-0,000000  	25,017395  	19,680084  	21,574615  	32,440028  	47,320126  	45,146361  	46,977229  	52,636294  	63,398677  	61,889794  	64,487095  	71,203393  	25,709664  	23,281380  	19,468197  	73,117638  	-0,004713  	-0,002388  	540,850176  	-4420,724242  	-0,012271  	-0,050001  	0,218724  	0,110829  	-2,532176  	4672,191756  	1096,287049  	0,159003  	-0,047952  
189,595000  	9,964754  	64,058310  	957,045375  	956,927186  	80,270407  	74,842270  	0,004009  	0,006001  	0,003961  	0,003914  	0,004258  	0,000002  	-0,000000  	25,008438  	19,681958  	21,573997  	32,431244  	47,320354  	45,143753  	46,974191  	52,630275  	63,399755  	61,892694  	64,480442  	71,199398  	25,726120  	23,274697  	19,455864  	73,120492  	-0,062988  	-0,031917  	7228,465105  	-1,916114  	-0,013758  	-0,049972  	0,230978  	0,117039  	-2,663859  	4290,465138  	1122,483705  	0,162802  	-0,047927  
190,594000  	9,963041  	64,061481  	357,499067  	-242,047242  	80,269407  	74,850816  	0,004008  	0,006016  	0,003959  	0,004028  	0,004285  	0,000000  	-0,000000  	25,013297  	19,685394  	21,574968  	32,428907  	47,315551  	45,138468  	46,970053  	52,629437  	63,400857  	61,894174  	64,478835  	71,203326  	25,735198  	23,262506  	19,459208  	73,116416  	0,029251  	0,014822  	-3357,108256  	-30942,058152  	-0,051176  	-0,049998  	0,251699  	0,127538  	-2,897724  	4322,174996  	1102,571422  	0,159914  	-0,047950  
191,593000  	9,962674  	64,064838  	1256,818530  	657,183579  	80,267845  	74,843268  	0,004009  	0,005976  	0,003962  	0,004003  	0,004268  	-0,000001  	-0,000000  	25,017326  	19,678921  	21,569794  	32,433506  	47,320706  	45,141436  	46,974320  	52,635872  	63,397369  	61,891913  	64,477680  	71,204231  	25,734481  	23,254310  	19,464485  	73,113974  	0,008765  	0,004441  	-1006,017353  	-9727,885760  	-0,013768  	-0,050010  	0,238614  	0,120908  	-2,750117  	4236,732481  	1116,566509  	0,161944  	-0,047960  
192,593000  	9,962674  	64,060424  	1256,818530  	57,696365  	80,269782  	74,813386  	0,004007  	0,006029  	0,003961  	0,004027  	0,004226  	-0,000000  	-0,000000  	25,007728  	19,677880  	21,574008  	32,423458  	47,310352  	45,136940  	46,966211  	52,624978  	63,387822  	61,886093  	64,469967  	71,203691  	25,738939  	23,259888  	19,456879  	73,099542  	0,028757  	0,014571  	-3300,412618  	-24495,435006  	-0,018201  	-0,050005  	0,205410  	0,104083  	-2,381298  	4352,206085  	1087,785493  	0,157770  	-0,047955  
193,594000  	9,960808  	64,056196  	1256,818530  	1256,670793  	80,275906  	74,797353  	0,004006  	0,006138  	0,003965  	0,003989  	0,004293  	0,000002  	-0,000000  	25,011961  	19,676293  	21,569723  	32,428452  	47,314576  	45,140119  	46,972398  	52,625402  	63,394700  	61,890660  	64,475873  	71,207225  	25,745650  	23,250590  	19,460901  	73,096364  	-0,002557  	-0,001296  	293,442732  	-1,992758  	-0,011064  	-0,049978  	0,258564  	0,131017  	-3,009680  	4587,235257  	1054,033467  	0,152875  	-0,047932  
194,598000  	9,960135  	64,051843  	657,272221  	1256,670793  	80,278406  	74,772213  	0,004012  	0,006222  	0,003962  	0,003974  	0,004218  	0,000001  	-0,000000  	25,017781  	19,677283  	21,574293  	32,434881  	47,324903  	45,140379  	46,980620  	52,630393  	63,403198  	61,895376  	64,485333  	71,207201  	25,748852  	23,239495  	19,468294  	73,096107  	-0,014178  	-0,007184  	1627,028891  	9720,503641  	-0,013763  	-0,049988  	0,198622  	0,100643  	-2,323605  	4767,351044  	1175,971487  	0,170560  	-0,047941  
195,593000  	9,959400  	64,042704  	657,272221  	357,439972  	80,279749  	74,758083  	0,004008  	0,006172  	0,003962  	0,004003  	0,004252  	0,000001  	-0,000000  	25,014624  	19,683093  	21,579307  	32,427761  	47,321447  	45,136374  	46,974810  	52,627462  	63,402533  	61,894388  	64,486138  	71,203986  	25,753590  	23,226870  	19,465372  	73,088050  	0,008785  	0,004451  	-1007,922881  	-7101,541919  	-0,021689  	-0,049984  	0,225602  	0,114314  	-2,646641  	4659,777491  	1095,778650  	0,158929  	-0,047938  
196,594000  	9,958605  	64,046310  	1256,818530  	-242,047242  	80,281624  	74,769749  	0,004004  	0,006175  	0,003963  	0,004002  	0,004279  	0,000001  	-0,000000  	25,013009  	19,687366  	21,577450  	32,426472  	47,320391  	45,140115  	46,975181  	52,630737  	63,405361  	61,896571  	64,488866  	71,204132  	25,765689  	23,214712  	19,467303  	73,085296  	0,008191  	0,004150  	-939,838892  	-35503,831794  	-0,021691  	-0,049991  	0,247113  	0,125214  	-2,893872  	4665,422204  	1017,513492  	0,147578  	-0,047944  
197,594000  	9,958238  	64,050009  	57,725912  	956,927186  	80,287373  	74,800815  	0,004009  	0,006208  	0,003961  	0,004041  	0,004240  	0,000001  	-0,000000  	25,011468  	19,684650  	21,577374  	32,425773  	47,322533  	45,137705  	46,975515  	52,628022  	63,407932  	61,898767  	64,486838  	71,200379  	25,778280  	23,204673  	19,464426  	73,085213  	0,040135  	0,020337  	-4605,730993  	21301,847486  	-0,021694  	-0,049993  	0,216698  	0,109802  	-2,526039  	4736,358536  	1115,034252  	0,161722  	-0,047946  
198,595000  	9,956892  	64,041989  	1256,818530  	357,439972  	80,292935  	74,815975  	0,004012  	0,006000  	0,003962  	0,004041  	0,004277  	0,000003  	-0,000000  	25,012396  	19,678723  	21,574899  	32,423360  	47,317238  	45,130988  	46,972734  	52,620889  	63,405139  	61,898055  	64,484780  	71,196694  	25,782193  	23,190834  	19,457366  	73,083015  	0,039802  	0,020168  	-4566,966777  	-16225,110593  	-0,015666  	-0,049969  	0,245511  	0,124402  	-2,856916  	4287,921161  	1187,311603  	0,172205  	-0,047924  
199,593000  	9,957718  	64,041522  	357,499067  	1256,670793  	80,292841  	74,827952  	0,004005  	0,006080  	0,003961  	0,003978  	0,004256  	-0,000000  	-0,000000  	25,018094  	19,678080  	21,569780  	32,426731  	47,314189  	45,135904  	46,977127  	52,625692  	63,402305  	61,896672  	64,485982  	71,198190  	25,779972  	23,177989  	19,462531  	73,080241  	-0,010824  	-0,005484  	1241,875860  	16232,580527  	-0,015677  	-0,050005  	0,228631  	0,115849  	-2,654626  	4460,574807  	1044,628090  	0,151510  	-0,047956  
200,597000  	9,957290  	64,048113  	-242,047242  	57,696365  	80,291591  	74,835563  	0,004008  	0,005986  	0,003964  	0,003995  	0,004241  	0,000002  	-0,000000  	25,016153  	19,679763  	21,566471  	32,424261  	47,315658  	45,136897  	46,971750  	52,623407  	63,399099  	61,888512  	64,475518  	71,193828  	25,784773  	23,166906  	19,459719  	73,072299  	0,002478  	0,001256  	-284,411722  	27688,224389  	-0,093530  	-0,049978  	0,217407  	0,110162  	-2,520224  	4258,975295  	1104,689750  	0,160222  	-0,047932  
201,592000  	9,957626  	64,052061  	957,045375  	1256,670793  	80,289029  	74,832818  	0,004007  	0,006166  	0,003962  	0,003989  	0,004249  	0,000002  	-0,000000  	25,013989  	19,684189  	21,572027  	32,431401  	47,315887  	45,135405  	46,972016  	52,627510  	63,400285  	61,882863  	64,483312  	71,200063  	25,798182  	23,167326  	19,462977  	73,074506  	-0,002470  	-0,001252  	283,498107  	4414,561500  	-0,012264  	-0,049972  	0,223697  	0,113349  	-2,593221  	4647,016578  	1074,538882  	0,155849  	-0,047928  
202,595000  	9,956219  	64,051626  	-242,047242  	1256,670793  	80,290217  	74,816162  	0,004008  	0,006092  	0,003963  	0,004024  	0,004228  	0,000002  	-0,000000  	25,013942  	19,690871  	21,574717  	32,429721  	47,316183  	45,139219  	46,973218  	52,629265  	63,395790  	61,887408  	64,482291  	71,209785  	25,797464  	23,157568  	19,472601  	73,080736  	0,026236  	0,013294  	-3010,982740  	35490,152166  	-0,021685  	-0,049970  	0,206986  	0,104882  	-2,407344  	4487,711734  	1108,905223  	0,160833  	-0,047926  
203,594000  	9,954751  	64,046776  	657,272221  	357,439972  	80,294403  	74,808114  	0,004011  	0,006211  	0,003962  	0,003971  	0,004237  	0,000001  	-0,000000  	25,004946  	19,681249  	21,576855  	32,422915  	47,313859  	45,134181  	46,969590  	52,612024  	63,391388  	61,885776  	64,482320  	71,207129  	25,809119  	23,150963  	19,472344  	73,071027  	-0,016787  	-0,008506  	1926,433868  	-7102,227010  	-0,021691  	-0,049990  	0,213603  	0,108234  	-2,489851  	4743,355179  	1165,245686  	0,169005  	-0,047942  
204,598000  	9,955424  	64,045595  	1256,818530  	956,927186  	80,296840  	74,815788  	0,004006  	0,006183  	0,003964  	0,004038  	0,004239  	0,000001  	-0,000000  	25,017152  	19,690917  	21,581402  	32,433975  	47,325502  	45,132179  	46,975299  	52,631557  	63,404293  	61,893772  	64,485759  	71,205406  	25,819589  	23,149332  	19,470264  	73,073529  	0,037791  	0,019149  	-4336,638997  	-4419,249689  	-0,012266  	-0,049982  	0,215722  	0,109308  	-2,512143  	4683,186884  	1058,630238  	0,153541  	-0,047936  
205,593000  	9,955271  	64,047305  	1256,818530  	57,696365  	80,302621  	74,816037  	0,004005  	0,006178  	0,003961  	0,003986  	0,004254  	0,000001  	-0,000000  	25,021725  	19,687057  	21,581506  	32,430973  	47,322185  	45,131695  	46,984044  	52,626386  	63,411389  	61,894008  	64,491232  	71,205715  	25,817556  	23,131685  	19,475117  	73,075181  	-0,004373  	-0,002216  	501,842148  	-24488,294511  	-0,018196  	-0,049988  	0,227340  	0,115195  	-2,650117  	4671,652682  	1027,992155  	0,149098  	-0,047941  
206,597000  	9,954537  	64,050351  	1256,818530  	657,183579  	80,306620  	74,840180  	0,004009  	0,006193  	0,003962  	0,004038  	0,004247  	0,000001  	-0,000000  	25,015770  	19,683689  	21,574663  	32,411390  	47,312639  	45,125667  	46,965684  	52,611250  	63,391434  	61,888128  	64,479380  	71,201542  	25,814807  	23,124327  	19,465808  	73,063186  	0,037254  	0,018877  	-4275,379591  	-9723,732649  	-0,013762  	-0,049986  	0,221886  	0,112431  	-2,577055  	4705,540767  	1112,019165  	0,161285  	-0,047939  
207,593000  	9,954628  	64,046994  	357,499067  	657,183579  	80,303996  	74,859082  	0,004010  	0,006188  	0,003962  	0,004011  	0,004273  	-0,000001  	-0,000000  	25,017996  	19,689920  	21,575885  	32,429669  	47,313001  	45,128759  	46,977583  	52,624085  	63,396124  	61,886289  	64,493723  	71,200640  	25,817584  	23,113654  	19,468266  	73,064449  	0,015193  	0,007698  	-1743,472569  	7101,128090  	-0,021699  	-0,050008  	0,242387  	0,122819  	-2,804082  	4694,307938  	1149,845442  	0,166771  	-0,047958  
208,596000  	9,953466  	64,038973  	957,045375  	57,696365  	80,300559  	74,875988  	0,004006  	0,006190  	0,003960  	0,003972  	0,004244  	-0,000001  	-0,000000  	25,016900  	19,682368  	21,583299  	32,431951  	47,320247  	45,144425  	46,984977  	52,622220  	63,408257  	61,885294  	64,491442  	71,218342  	25,833159  	23,122614  	19,481037  	73,064964  	-0,016404  	-0,008312  	1882,243397  	-21311,967515  	-0,021700  	-0,050014  	0,219282  	0,111112  	-2,527313  	4697,451121  	1055,134997  	0,153034  	-0,047963  
209,593000  	9,954812  	64,032818  	57,725912  	1256,670793  	80,305777  	74,872682  	0,004009  	0,006198  	0,003964  	0,003971  	0,004220  	0,000003  	-0,000000  	25,001259  	19,674996  	21,569984  	32,419914  	47,310173  	45,129519  	46,974841  	52,615787  	63,399839  	61,877993  	64,489943  	71,207893  	25,833461  	23,099119  	19,465579  	73,069732  	-0,016996  	-0,008612  	1949,892073  	24475,671363  	-0,018190  	-0,049965  	0,200274  	0,101480  	-2,311866  	4716,368938  	1121,841146  	0,162709  	-0,047921  
210,595000  	9,953282  	64,030393  	1256,818530  	1256,670793  	80,312651  	74,876425  	0,004010  	0,006141  	0,003963  	0,003975  	0,004244  	0,000000  	-0,000000  	25,009185  	19,684738  	21,569152  	32,421070  	47,312399  	45,124690  	46,975013  	52,610435  	63,388058  	61,881063  	64,479126  	71,203751  	25,818354  	23,091516  	19,452835  	73,069028  	-0,013220  	-0,006698  	1516,620317  	-1,993343  	-0,011067  	-0,049994  	0,219744  	0,111346  	-2,538084  	4593,414799  	1147,472914  	0,166427  	-0,047946  
211,594000  	9,953374  	64,030206  	357,499067  	1256,670793  	80,315088  	74,882570  	0,004007  	0,006075  	0,003964  	0,004005  	0,004216  	0,000001  	-0,000000  	24,999358  	19,672168  	21,574080  	32,415494  	47,309228  	45,116599  	46,970055  	52,605302  	63,378969  	61,871350  	64,483496  	71,189450  	25,829043  	23,078100  	19,465605  	73,067018  	0,011018  	0,005583  	-1264,015089  	16228,262369  	-0,015673  	-0,049990  	0,196995  	0,099819  	-2,273775  	4450,512093  	1073,839833  	0,155747  	-0,047943  
212,596000  	9,953619  	64,026289  	957,045375  	57,696365  	80,317025  	74,888684  	0,004012  	0,006112  	0,003961  	0,004048  	0,004208  	0,000000  	-0,000000  	25,010419  	19,675495  	21,568919  	32,428013  	47,309250  	45,120467  	46,976758  	52,607757  	63,394109  	61,885601  	64,482167  	71,199277  	25,834314  	23,072719  	19,466178  	73,067661  	0,045395  	0,023002  	-5207,527826  	-21306,618843  	-0,021695  	-0,049999  	0,191112  	0,096838  	-2,204179  	4529,162418  	1182,566548  	0,171517  	-0,047951  
213,593000  	9,953496  	64,032942  	957,045375  	1256,670793  	80,318962  	74,891616  	0,004009  	0,006130  	0,003962  	0,003962  	0,004258  	0,000002  	-0,000000  	25,018284  	19,683730  	21,579163  	32,423175  	47,314730  	45,122075  	46,985556  	52,606377  	63,394511  	61,881563  	64,485298  	71,202833  	25,832169  	23,060863  	19,475229  	73,070572  	-0,024118  	-0,012221  	2767,082177  	4414,557296  	-0,012264  	-0,049972  	0,230504  	0,116798  	-2,658020  	4569,022763  	1117,992850  	0,162151  	-0,047927  
214,592000  	9,953374  	64,039035  	357,499067  	657,183579  	80,321212  	74,882508  	0,004006  	0,006101  	0,003963  	0,003888  	0,004269  	0,000002  	-0,000000  	25,020560  	19,695361  	21,583940  	32,424019  	47,323813  	45,132572  	46,983771  	52,620006  	63,400001  	61,887845  	64,498436  	71,209437  	25,850769  	23,062542  	19,471536  	73,071589  	-0,083915  	-0,042520  	9628,635056  	7097,578443  	-0,021688  	-0,049980  	0,239069  	0,121138  	-2,762549  	4506,494429  	1061,956013  	0,154024  	-0,047934  
215,598000  	9,953558  	64,040807  	1256,818530  	-242,047242  	80,320774  	74,879201  	0,004008  	0,006169  	0,003964  	0,003911  	0,004264  	0,000002  	-0,000000  	25,007678  	19,676236  	21,574982  	32,423717  	47,313321  	45,124643  	46,980711  	52,607442  	63,392298  	61,887701  	64,489617  	71,204166  	25,835560  	23,036434  	19,460292  	73,066758  	-0,065398  	-0,033138  	7504,168552  	-35495,071199  	-0,021686  	-0,049977  	0,235268  	0,119212  	-2,720057  	4653,447971  	1102,889171  	0,159961  	-0,047932  
216,593000  	9,952334  	64,043978  	1256,818530  	956,927186  	80,319212  	74,864790  	0,004008  	0,006189  	0,003962  	0,004004  	0,004253  	0,000000  	-0,000000  	25,011811  	19,677718  	21,579348  	32,422377  	47,309936  	45,127668  	46,980149  	52,616885  	63,387705  	61,891826  	64,489657  	71,200338  	25,839639  	23,035144  	19,459109  	73,059171  	0,009969  	0,005051  	-1144,025374  	-4420,620327  	-0,012270  	-0,050000  	0,226732  	0,114887  	-2,627556  	4695,559410  	1105,417043  	0,160327  	-0,047951  
217,594000  	9,954017  	64,045035  	957,045375  	956,927186  	80,317181  	74,875053  	0,004007  	0,006209  	0,003960  	0,003997  	0,004233  	-0,000000  	-0,000000  	25,007945  	19,687229  	21,580430  	32,420801  	47,309474  	45,126101  	46,984482  	52,623076  	63,395362  	61,890103  	64,486822  	71,204203  	25,840494  	23,033201  	19,458708  	73,072300  	0,004566  	0,002313  	-523,923777  	-1,917113  	-0,013766  	-0,050001  	0,210676  	0,106751  	-2,435988  	4738,407300  	1073,677428  	0,155724  	-0,047952  
218,594000  	9,954506  	64,051066  	357,499067  	357,439972  	80,315681  	74,899009  	0,004008  	0,006181  	0,003964  	0,003985  	0,004298  	-0,000000  	-0,000000  	25,011438  	19,684880  	21,578118  	32,423496  	47,316260  	45,128588  	46,981466  	52,619311  	63,397570  	61,886426  	64,500762  	71,204661  	25,842145  	23,029089  	19,462075  	73,081780  	-0,005601  	-0,002838  	642,751509  	-1,685345  	-0,026854  	-0,050003  	0,262509  	0,133015  	-3,021127  	4679,561223  	1089,925004  	0,158080  	-0,047954  
219,594000  	9,954139  	64,056382  	1256,818530  	1256,670793  	80,312932  	74,920001  	0,004010  	0,006187  	0,003964  	0,003985  	0,004202  	0,000002  	-0,000000  	25,016341  	19,686023  	21,585087  	32,434545  	47,314034  	45,129244  	46,982528  	52,619364  	63,397435  	61,883169  	64,504275  	71,205377  	25,850322  	23,022812  	19,461397  	73,079836  	-0,005323  	-0,002697  	610,922382  	-1,992701  	-0,011064  	-0,049976  	0,185900  	0,094197  	-2,130097  	4692,549934  	1137,559139  	0,164989  	-0,047931  
220,595000  	9,954261  	64,059988  	1256,818530  	57,696365  	80,312182  	74,918816  	0,004008  	0,006194  	0,003964  	0,004113  	0,004318  	0,000002  	-0,000000  	25,023335  	19,686655  	21,587302  	32,434539  	47,319636  	45,138523  	46,987234  	52,626587  	63,397734  	61,889910  	64,506086  	71,205538  	25,845621  	23,017711  	19,465904  	73,077653  	0,098110  	0,049713  	-11261,590895  	-24485,153841  	-0,018194  	-0,049981  	0,278162  	0,140947  	-3,187512  	4707,866850  	1099,344502  	0,159446  	-0,047935  
221,594000  	9,955760  	64,060113  	1256,818530  	-242,047242  	80,310213  	74,918598  	0,004009  	0,006196  	0,003964  	0,004008  	0,004239  	0,000000  	-0,000000  	25,017161  	19,685875  	21,583506  	32,426833  	47,320350  	45,134317  	46,986346  	52,625999  	63,396827  	61,890599  	64,503470  	71,199533  	25,846092  	23,013405  	19,464533  	73,075712  	0,013511  	0,006846  	-1550,854860  	-35509,087111  	-0,021694  	-0,049999  	0,215510  	0,109201  	-2,468774  	4711,498171  	1119,765184  	0,162408  	-0,047951  
222,596000  	9,955210  	64,063595  	657,272221  	357,439972  	80,309464  	74,917537  	0,004007  	0,006178  	0,003960  	0,004013  	0,004184  	-0,000001  	-0,000000  	25,008795  	19,681695  	21,572509  	32,425731  	47,311122  	45,124253  	46,981181  	52,623077  	63,394673  	61,886183  	64,498329  	71,197406  	25,846557  	23,023854  	19,456100  	73,073264  	0,017246  	0,008739  	-1979,703327  	-7105,661306  	-0,021702  	-0,050017  	0,171917  	0,087111  	-1,969501  	4673,194208  	1070,965968  	0,155330  	-0,047966  
223,593000  	9,954751  	64,069937  	-242,047242  	1256,670793  	80,307089  	74,916165  	0,004011  	0,006201  	0,003962  	0,003962  	0,004265  	0,000001  	-0,000000  	25,018726  	19,684610  	21,571864  	32,435408  	47,317464  	45,135129  	46,989346  	52,632236  	63,397724  	61,892493  	64,501683  	71,206127  	25,844355  	23,056454  	19,462406  	73,083970  	-0,024217  	-0,012271  	2780,287355  	35499,817514  	-0,021691  	-0,049986  	0,235973  	0,119569  	-2,702839  	4722,173534  	1154,590497  	0,167459  	-0,047939  
224,595000  	9,955852  	64,076154  	-242,047242  	57,696365  	80,303902  	74,920407  	0,004008  	0,006188  	0,003961  	0,004091  	0,004213  	-0,000001  	-0,000000  	25,024553  	19,692559  	21,585336  	32,441709  	47,324227  	45,147772  	46,999673  	52,637587  	63,404088  	61,896599  	64,505543  	71,210089  	25,850980  	23,086183  	19,471424  	73,099943  	0,080083  	0,040579  	-9194,824781  	27702,427322  	-0,093578  	-0,050006  	0,195113  	0,098865  	-2,231751  	4693,466077  	1104,590895  	0,160207  	-0,047957  
225,593000  	9,956372  	64,081284  	1256,818530  	-242,047242  	80,297965  	74,923089  	0,004006  	0,006199  	0,003963  	0,003954  	0,004285  	0,000000  	-0,000000  	25,021524  	19,690128  	21,586086  	32,442177  	47,317770  	45,147896  	47,001127  	52,635722  	63,404170  	61,891567  	64,510082  	71,206673  	25,849924  	23,101371  	19,468164  	73,101065  	-0,030464  	-0,015436  	3498,030131  	-35509,458962  	-0,021694  	-0,050000  	0,251997  	0,127689  	-2,877780  	4718,407090  	1053,899306  	0,152855  	-0,047951  
226,594000  	9,956617  	64,089615  	657,272221  	357,439972  	80,297965  	74,926458  	0,004006  	0,006171  	0,003964  	0,004042  	0,004295  	0,000000  	-0,000000  	25,022805  	19,690302  	21,586474  	32,446519  	47,319524  	45,143356  	47,007883  	52,639633  	63,398950  	61,891512  	64,512279  	71,208365  	25,843406  	23,109551  	19,465763  	73,097029  	0,040864  	0,020706  	-4692,934946  	-7102,945913  	-0,021694  	-0,049995  	0,259882  	0,131684  	-2,965972  	4657,983408  	1057,267447  	0,153344  	-0,047947  
227,597000  	9,958177  	64,089709  	657,272221  	1256,670793  	80,295403  	74,931480  	0,004009  	0,006197  	0,003965  	0,004011  	0,004181  	-0,000000  	-0,000000  	25,013371  	19,685598  	21,585794  	32,435988  	47,319348  	45,137218  	46,995331  	52,635014  	63,395269  	61,894181  	64,509267  	71,203746  	25,839230  	23,107092  	19,462137  	73,093547  	0,015817  	0,008014  	-1816,403095  	9723,461206  	-0,013767  	-0,050005  	0,169217  	0,085743  	-1,928504  	4712,516186  	1119,405069  	0,162356  	-0,047956  
228,593000  	9,958116  	64,092382  	1256,818530  	1256,670793  	80,290529  	74,920188  	0,004009  	0,006176  	0,003963  	0,004010  	0,004229  	0,000001  	-0,000000  	25,015813  	19,686272  	21,574298  	32,447859  	47,323579  	45,137768  	46,999788  	52,638581  	63,410063  	61,894072  	64,516588  	71,200852  	25,847202  	23,108541  	19,470990  	73,097260  	0,014557  	0,007376  	-1671,806992  	-1,993000  	-0,011065  	-0,049984  	0,207507  	0,105145  	-2,367710  	4668,048244  	1117,293802  	0,162050  	-0,047938  
229,598000  	9,958238  	64,099315  	1256,818530  	956,927186  	80,282968  	74,908928  	0,004010  	0,006180  	0,003959  	0,004005  	0,004244  	0,000000  	-0,000000  	25,021955  	19,684341  	21,575058  	32,452469  	47,328970  	45,143002  	47,007982  	52,635283  	63,411525  	61,901662  	64,523819  	71,209094  	25,853551  	23,107152  	19,474333  	73,097114  	0,010614  	0,005378  	-1219,162305  	-4420,281066  	-0,012269  	-0,049995  	0,219454  	0,111199  	-2,505757  	4677,336305  	1145,036837  	0,166074  	-0,047948  
230,594000  	9,958422  	64,097698  	1256,818530  	357,439972  	80,277156  	74,914355  	0,004012  	0,006178  	0,003963  	0,003925  	0,004216  	0,000001  	-0,000000  	25,021509  	19,691865  	21,583460  	32,451002  	47,331647  	45,143651  	47,013480  	52,648044  	63,404351  	61,906398  	64,528098  	71,211219  	25,867834  	23,101989  	19,474420  	73,096768  	-0,054011  	-0,027368  	6203,485831  	-16231,088012  	-0,015672  	-0,049989  	0,197546  	0,100098  	-2,250887  	4672,162751  	1181,556812  	0,171370  	-0,047942  
231,595000  	9,958422  	64,095926  	1256,818530  	1256,670793  	80,278750  	74,930420  	0,004006  	0,006206  	0,003962  	0,003998  	0,004261  	-0,000001  	-0,000000  	25,013344  	19,688222  	21,573567  	32,449756  	47,324555  	45,134302  	47,007292  	52,648494  	63,402566  	61,899715  	64,520346  	71,207452  	25,853003  	23,086898  	19,459754  	73,087362  	0,004996  	0,002532  	-573,836598  	-1,993796  	-0,011070  	-0,050007  	0,233284  	0,118207  	-2,650931  	4733,895209  	1057,443975  	0,153369  	-0,047957  
232,595000  	9,958850  	64,096486  	57,725912  	57,696365  	80,282437  	74,917007  	0,004007  	0,006204  	0,003964  	0,004090  	0,004222  	0,000001  	-0,000000  	25,019371  	19,692331  	21,586846  	32,450735  	47,332541  	45,151799  	47,000663  	52,648592  	63,413047  	61,912569  	64,532437  	71,201784  	25,861363  	23,081047  	19,468515  	73,098684  	0,079366  	0,040215  	-9115,439144  	-1,524533  	-0,051163  	-0,049982  	0,202126  	0,102419  	-2,304206  	4729,022320  	1072,653570  	0,155575  	-0,047936  
233,597000  	9,958085  	64,101895  	57,725912  	57,696365  	80,282624  	74,909115  	0,004009  	0,006174  	0,003964  	0,004000  	0,004216  	0,000000  	-0,000000  	25,028043  	19,704010  	21,602582  	32,466313  	47,345541  	45,164853  	47,016295  	52,655751  	63,426133  	61,920979  	64,538925  	71,223464  	25,876342  	23,082080  	19,467466  	73,094108  	0,006909  	0,003501  	-793,659082  	-1,524913  	-0,051176  	-0,049996  	0,196963  	0,099803  	-2,248725  	4663,809227  	1115,945133  	0,161854  	-0,047948  
234,596000  	9,958880  	64,112776  	1256,818530  	1256,670793  	80,277500  	74,923339  	0,004008  	0,006006  	0,003965  	0,004043  	0,004217  	0,000000  	-0,000000  	25,024210  	19,689481  	21,587953  	32,472059  	47,334066  	45,155001  	47,018834  	52,649508  	63,419491  	61,910889  	64,539559  	71,213355  	25,857524  	23,064324  	19,471237  	73,091305  	0,041529  	0,021043  	-4771,205248  	-1,993351  	-0,011067  	-0,049994  	0,197723  	0,100187  	-2,249274  	4300,769798  	1097,988773  	0,159250  	-0,047946  
235,594000  	9,959982  	64,122849  	357,499067  	357,439972  	80,268595  	74,929484  	0,004006  	0,006005  	0,003960  	0,004074  	0,004230  	-0,000000  	-0,000000  	25,028004  	19,703720  	21,593007  	32,453014  	47,347372  	45,159406  	47,024589  	52,657134  	63,420802  	61,912648  	64,548364  	71,214763  	25,872803  	23,056304  	19,474781  	73,100320  	0,066503  	0,033697  	-7641,606505  	-1,685275  	-0,026852  	-0,050001  	0,208540  	0,105669  	-2,365661  	4298,576008  	1052,359988  	0,152632  	-0,047952  
236,595000  	9,959553  	64,123284  	957,045375  	-242,047242  	80,259847  	74,934537  	0,004008  	0,006144  	0,003963  	0,004004  	0,004284  	0,000000  	-0,000000  	24,998470  	19,677607  	21,575138  	32,444559  	47,321225  	45,140189  	47,000839  	52,637786  	63,405425  	61,892527  	64,516762  	71,194160  	25,838531  	23,039912  	19,458783  	73,078432  	0,010097  	0,005116  	-1160,233012  	-34190,443735  	-0,026848  	-0,049994  	0,251162  	0,127266  	-2,841810  	4599,408282  	1108,643962  	0,160795  	-0,047947  
237,598000  	9,960257  	64,119367  	957,045375  	-242,047242  	80,255535  	74,909645  	0,004010  	0,006065  	0,003964  	0,004100  	0,004226  	0,000002  	-0,000000  	25,029446  	19,705679  	21,593371  	32,469947  	47,349084  	45,166846  	47,022067  	52,656911  	63,424821  	61,917926  	64,540779  	71,213043  	25,850436  	23,051745  	19,478348  	73,091699  	0,087480  	0,044327  	-10051,347137  	-34181,734817  	-0,026841  	-0,049980  	0,205055  	0,103903  	-2,329074  	4429,607767  	1145,291037  	0,166110  	-0,047934  
238,595000  	9,959829  	64,122103  	-242,047242  	357,439972  	80,252848  	74,882445  	0,004008  	0,006177  	0,003965  	0,003990  	0,004253  	0,000002  	-0,000000  	25,011721  	19,689020  	21,582373  	32,459664  	47,336454  	45,147086  	47,014223  	52,647319  	63,414112  	61,913868  	64,534580  	71,198294  	25,846807  	23,046407  	19,463667  	73,086906  	-0,001706  	-0,000865  	196,055667  	30927,321389  	-0,051157  	-0,049972  	0,226318  	0,114677  	-2,582370  	4669,506998  	1107,831937  	0,160677  	-0,047928  
239,597000  	9,959095  	64,123875  	-242,047242  	1256,670793  	80,249380  	74,864073  	0,004009  	0,006158  	0,003961  	0,004040  	0,004303  	-0,000000  	-0,000000  	25,026510  	19,697065  	21,584934  	32,471242  	47,348454  	45,161717  	47,023106  	52,655058  	63,429559  	61,923940  	64,544193  	71,208861  	25,855477  	23,047113  	19,478004  	73,080474  	0,038908  	0,019715  	-4470,993605  	35511,529305  	-0,021698  	-0,050004  	0,265944  	0,134756  	-3,042921  	4629,566711  	1127,497082  	0,163530  	-0,047955  
240,594000  	9,959156  	64,124807  	957,045375  	1256,670793  	80,249317  	74,844609  	0,004008  	0,006102  	0,003963  	0,003922  	0,004247  	0,000001  	-0,000000  	25,018266  	19,688560  	21,589222  	32,463100  	47,337884  	45,156412  	47,032501  	52,656782  	63,429015  	61,918085  	64,537646  	71,204865  	25,856341  	23,042988  	19,469305  	73,081026  	-0,056499  	-0,028629  	6492,478818  	4415,497852  	-0,012267  	-0,049984  	0,221991  	0,112484  	-2,549154  	4509,046894  	1101,201570  	0,159716  	-0,047938  
241,594000  	9,958636  	64,125274  	57,725912  	1256,670793  	80,245724  	74,838870  	0,004005  	0,006099  	0,003962  	0,003951  	0,004210  	0,000001  	-0,000000  	25,021452  	19,692568  	21,583571  	32,473823  	47,340746  	45,159876  	47,034485  	52,669259  	63,438273  	61,924270  	64,543281  	71,210009  	25,857637  	23,052717  	19,474743  	73,083421  	-0,033140  	-0,016793  	3808,317838  	24484,554437  	-0,018196  	-0,049985  	0,192706  	0,097646  	-2,213755  	4501,543721  	1036,267756  	0,150298  	-0,047939  
242,596000  	9,960655  	64,130497  	657,272221  	1256,670793  	80,242100  	74,851721  	0,004009  	0,006144  	0,003961  	0,004041  	0,004232  	0,000002  	-0,000000  	25,028893  	19,694705  	21,580706  	32,468183  	47,338651  	45,158594  	47,027397  	52,662034  	63,433129  	61,917993  	64,554811  	71,213145  	25,847702  	23,051518  	19,464418  	73,077481  	0,039898  	0,020217  	-4585,142221  	9719,248420  	-0,013761  	-0,049981  	0,210042  	0,106430  	-2,405553  	4599,627591  	1110,472786  	0,161060  	-0,047935  
243,594000  	9,961022  	64,133574  	657,272221  	1256,670793  	80,241037  	74,851658  	0,004009  	0,006159  	0,003962  	0,003996  	0,004233  	-0,000001  	-0,000000  	25,028181  	19,692479  	21,580178  	32,461486  	47,341789  	45,165840  	47,027206  	52,655338  	63,430734  	61,913121  	64,547451  	71,206162  	25,848439  	23,064263  	19,469859  	73,076227  	0,003496  	0,001771  	-401,784844  	9724,841736  	-0,013769  	-0,050013  	0,210735  	0,106781  	-2,413045  	4630,497003  	1118,006972  	0,162153  	-0,047963  
244,595000  	9,960226  	64,137989  	1256,818530  	1256,670793  	80,242474  	74,836624  	0,004009  	0,006194  	0,003963  	0,004093  	0,004178  	0,000001  	-0,000000  	25,019801  	19,694886  	21,576479  	32,465813  	47,339332  	45,165511  	47,034693  	52,658513  	63,432961  	61,923890  	64,546019  	71,203944  	25,842983  	23,076687  	19,465708  	73,074797  	0,081922  	0,041511  	-9415,985284  	-1,993236  	-0,011067  	-0,049991  	0,167186  	0,084714  	-1,920227  	4706,691075  	1122,631988  	0,162824  	-0,047944  
245,592000  	9,959523  	64,137989  	957,045375  	-242,047242  	80,242881  	74,826424  	0,004007  	0,006194  	0,003960  	0,004055  	0,004239  	0,000001  	-0,000000  	25,029719  	19,698121  	21,584216  	32,468223  	47,345428  	45,161769  	47,035001  	52,657855  	63,432549  	61,926330  	64,551042  	71,209605  	25,838773  	23,088132  	19,463922  	73,075248  	0,051297  	0,025992  	-5896,028229  	-34188,292797  	-0,026846  	-0,049991  	0,215325  	0,109107  	-2,477976  	4707,165064  	1073,225518  	0,155658  	-0,047944  
246,596000  	9,958727  	64,129782  	357,499067  	357,439972  	80,241506  	74,826549  	0,004009  	0,006188  	0,003964  	0,003968  	0,004223  	0,000003  	-0,000000  	25,024417  	19,696168  	21,584242  	32,467186  	47,346684  	45,158267  	47,030870  	52,659089  	63,429328  	61,921529  	64,553885  	71,211530  	25,838212  	23,098974  	19,468086  	73,073306  	-0,019566  	-0,009914  	2248,558528  	-1,684050  	-0,026833  	-0,049960  	0,203082  	0,102903  	-2,336433  	4694,072358  	1122,448400  	0,162797  	-0,047917  
247,594000  	9,958452  	64,126331  	1256,818530  	1256,670793  	80,244755  	74,828795  	0,004005  	0,006179  	0,003963  	0,004031  	0,004245  	-0,000000  	-0,000000  	25,024840  	19,697797  	21,589219  	32,470793  	47,350001  	45,166907  	47,036703  	52,659168  	63,434509  	61,929377  	64,562300  	71,215602  	25,843013  	23,119036  	19,468687  	73,077959  	0,031932  	0,016180  	-3669,568378  	-1,993638  	-0,011069  	-0,050002  	0,220546  	0,111752  	-2,537827  	4674,949381  	1036,161840  	0,150283  	-0,047953  
248,603000  	9,958819  	64,120797  	1256,818530  	1256,670793  	80,247880  	74,835719  	0,004004  	0,006198  	0,003962  	0,003973  	0,004241  	0,000001  	-0,000000  	25,030342  	19,693315  	21,589188  	32,465376  	47,344219  	45,168289  	47,032979  	52,656218  	63,433296  	61,926117  	64,562654  	71,207361  	25,852559  	23,134041  	19,465604  	73,078312  	-0,014938  	-0,007569  	1716,390752  	-1,992994  	-0,011065  	-0,049984  	0,217265  	0,110090  	-2,498324  	4715,242684  	1014,519589  	0,147144  	-0,047938  
249,593000  	9,957810  	64,112994  	957,045375  	956,927186  	80,252723  	74,837809  	0,004008  	0,006192  	0,003962  	0,004033  	0,004266  	0,000002  	-0,000000  	25,024536  	19,691134  	21,583437  	32,462019  	47,335704  	45,162460  	47,028408  	52,660747  	63,428548  	61,919547  	64,560354  	71,200285  	25,851218  	23,143158  	19,468408  	73,079570  	0,033760  	0,017106  	-3878,651352  	-1,916379  	-0,013760  	-0,049979  	0,237308  	0,120246  	-2,730189  	4701,866292  	1109,109995  	0,160863  	-0,047934  
250,595000  	9,958911  	64,112807  	-242,047242  	-242,047242  	80,255222  	74,844359  	0,004005  	0,006181  	0,003962  	0,003958  	0,004158  	0,000001  	-0,000000  	25,027388  	19,694018  	21,590366  	32,468310  	47,342620  	45,163920  	47,033937  	52,663169  	63,431604  	61,928704  	64,566847  	71,211782  	25,842260  	23,151608  	19,474939  	73,089687  	-0,027253  	-0,013809  	3131,000384  	-0,000000  	-0,544316  	-0,049988  	0,151744  	0,076890  	-1,744489  	4679,246409  	1027,752077  	0,149063  	-0,047941  
251,593000  	9,958727  	64,103854  	657,272221  	657,183579  	80,256816  	74,867847  	0,004013  	0,006149  	0,003963  	0,004035  	0,004233  	0,000002  	-0,000000  	25,031551  	19,690469  	21,593500  	32,468060  	47,345547  	45,159881  	47,029686  	52,658245  	63,431358  	61,926870  	64,567088  	71,213768  	25,848592  	23,155931  	19,472656  	73,091377  	0,034661  	0,017563  	-3981,508960  	-1,809668  	-0,018190  	-0,049969  	0,210410  	0,106616  	-2,409144  	4609,739118  	1202,591809  	0,174421  	-0,047925  
252,594000  	9,959095  	64,097077  	1256,818530  	57,696365  	80,256128  	74,875770  	0,004006  	0,006072  	0,003963  	0,004046  	0,004234  	-0,000000  	-0,000000  	25,034629  	19,700903  	21,593345  	32,470472  	47,351402  	45,164715  	47,035672  	52,664222  	63,437449  	61,923347  	64,570334  	71,215434  	25,856503  	23,171921  	19,470451  	73,096910  	0,043638  	0,022112  	-5011,993320  	-24493,483522  	-0,018200  	-0,050000  	0,211502  	0,107170  	-2,417781  	4443,656940  	1053,743962  	0,152833  	-0,047952  
253,593000  	9,958880  	64,103885  	1256,818530  	1256,670793  	80,254941  	74,871840  	0,004008  	0,006141  	0,003963  	0,004038  	0,004179  	0,000001  	-0,000000  	25,040638  	19,703965  	21,593230  	32,465997  	47,356372  	45,169601  	47,045454  	52,671122  	63,441785  	61,928035  	64,576831  	71,223364  	25,847854  	23,174053  	19,473406  	73,100846  	0,037017  	0,018757  	-4252,072893  	-1,993187  	-0,011066  	-0,049990  	0,167880  	0,085066  	-1,920092  	4592,258124  	1089,861454  	0,158071  	-0,047942  
254,593000  	9,958819  	64,102579  	1256,818530  	1256,670793  	80,257878  	74,855433  	0,004009  	0,006212  	0,003961  	0,004011  	0,004226  	0,000000  	-0,000000  	25,037855  	19,697221  	21,601196  	32,466572  	47,349885  	45,159042  	47,039903  	52,669957  	63,433901  	61,928437  	64,575230  	71,215427  	25,850854  	23,170185  	19,470026  	73,094415  	0,015188  	0,007696  	-1744,548171  	-1,993557  	-0,011068  	-0,050000  	0,205151  	0,103951  	-2,354793  	4745,790916  	1120,323011  	0,162489  	-0,047951  
255,597000  	9,959278  	64,108641  	357,499067  	1256,670793  	80,262221  	74,841646  	0,004006  	0,006186  	0,003963  	0,004056  	0,004187  	0,000001  	-0,000000  	25,035631  	19,692381  	21,590022  	32,461511  	47,347847  	45,162909  	47,030123  	52,670179  	63,420869  	61,928998  	64,568748  	71,213008  	25,835871  	23,160313  	19,464202  	73,091450  	0,051611  	0,026152  	-5928,997567  	16227,060701  	-0,015672  	-0,049986  	0,174747  	0,088546  	-2,012537  	4690,180697  	1063,029300  	0,154179  	-0,047940  
256,594000  	9,959768  	64,115854  	-242,047242  	57,696365  	80,265658  	74,843205  	0,004008  	0,006185  	0,003966  	0,003961  	0,004236  	0,000001  	-0,000000  	25,049135  	19,696161  	21,583305  	32,462814  	47,353221  	45,163233  	47,031315  	52,671784  	63,423184  	61,929377  	64,565934  	71,214639  	25,844594  	23,160481  	19,471824  	73,099919  	-0,025036  	-0,012686  	2876,431961  	27690,946516  	-0,093539  	-0,049983  	0,212814  	0,107834  	-2,451794  	4686,606679  	1107,288232  	0,160599  	-0,047937  
257,594000  	9,959492  	64,105160  	1256,818530  	1256,670793  	80,267002  	74,852033  	0,004006  	0,006081  	0,003962  	0,003972  	0,004222  	0,000002  	-0,000000  	25,040296  	19,695010  	21,599040  	32,468661  	47,346674  	45,165561  	47,028645  	52,670885  	63,427481  	61,922022  	64,568114  	71,215150  	25,848025  	23,153274  	19,473828  	73,099034  	-0,015861  	-0,008037  	1821,925196  	-1,992492  	-0,011062  	-0,049970  	0,202265  	0,102489  	-2,327055  	4463,361437  	1050,276965  	0,152330  	-0,047926  
258,599000  	9,959615  	64,098818  	657,272221  	1256,670793  	80,265877  	74,858334  	0,004008  	0,005988  	0,003964  	0,003956  	0,004247  	0,000000  	-0,000000  	25,046046  	19,706812  	21,593778  	32,473346  	47,348948  	45,171424  	47,034120  	52,677315  	63,423512  	61,928602  	64,569787  	71,211863  	25,831437  	23,152005  	19,474150  	73,105216  	-0,028654  	-0,014519  	3291,054926  	9721,506821  	-0,013764  	-0,049994  	0,221504  	0,112238  	-2,544904  	4261,823473  	1101,815885  	0,159805  	-0,047946  
259,593000  	9,959156  	64,097605  	-242,047242  	1256,670793  	80,259347  	74,863231  	0,004006  	0,005977  	0,003963  	0,004046  	0,004237  	0,000003  	-0,000000  	25,038536  	19,707573  	21,584915  	32,458672  	47,352660  	45,168888  	47,031931  	52,670036  	63,414826  	61,927448  	64,571367  	71,202510  	25,848190  	23,147700  	19,464371  	73,100438  	0,044101  	0,022347  	-5065,253563  	35484,044040  	-0,021681  	-0,049961  	0,214292  	0,108583  	-2,456845  	4239,662015  	1053,235563  	0,152759  	-0,047918  
260,596000  	9,958360  	64,092196  	957,045375  	1256,670793  	80,257847  	74,859800  	0,004009  	0,006148  	0,003964  	0,003952  	0,004243  	0,000001  	-0,000000  	25,022418  	19,691156  	21,568709  	32,462857  	47,344201  	45,154147  	47,020469  	52,671773  	63,411605  	61,916905  	64,559282  	71,209777  	25,822264  	23,145887  	19,454319  	73,103838  	-0,032392  	-0,016413  	3720,029600  	4415,711968  	-0,012268  	-0,049987  	0,218608  	0,110770  	-2,507221  	4607,908955  	1128,464451  	0,163670  	-0,047940  
261,594000  	9,958727  	64,094434  	1256,818530  	1256,670793  	80,256597  	74,833910  	0,004005  	0,006241  	0,003967  	0,003929  	0,004266  	0,000001  	-0,000000  	25,032360  	19,683765  	21,580983  	32,462182  	47,349414  	45,164816  	47,029991  	52,673813  	63,409600  	61,928803  	64,556790  	71,212659  	25,830072  	23,136848  	19,458231  	73,103363  	-0,051207  	-0,025947  	5881,105347  	-1,992957  	-0,011065  	-0,049983  	0,237045  	0,120112  	-2,731069  	4808,133899  	1028,154560  	0,149121  	-0,047937  
262,593000  	9,958789  	64,100092  	1256,818530  	657,183579  	80,256222  	74,810703  	0,004006  	0,006164  	0,003963  	0,004012  	0,004277  	0,000001  	-0,000000  	25,031413  	19,703503  	21,587313  	32,469767  	47,348002  	45,162146  	47,025589  	52,672839  	63,426923  	61,929341  	64,555432  	71,208940  	25,845049  	23,160734  	19,473961  	73,117904  	0,016506  	0,008364  	-1895,919736  	-9724,345182  	-0,013763  	-0,049989  	0,245826  	0,124562  	-2,844155  	4641,974609  	1064,321480  	0,154367  	-0,047942  
263,594000  	9,959890  	64,101211  	1256,818530  	657,183579  	80,255004  	74,808645  	0,004008  	0,006176  	0,003963  	0,004009  	0,004191  	0,000000  	-0,000000  	25,031249  	19,696312  	21,577194  	32,470131  	47,352775  	45,177124  	47,026948  	52,679478  	63,423154  	61,932918  	64,555748  	71,208334  	25,822520  	23,157012  	19,468178  	73,112294  	0,014166  	0,007178  	-1627,135438  	-9725,916398  	-0,013765  	-0,049998  	0,177914  	0,090151  	-2,058751  	4668,975706  	1088,809351  	0,157918  	-0,047950  
264,595000  	9,959339  	64,106994  	57,725912  	1256,670793  	80,251942  	74,820747  	0,004006  	0,006206  	0,003965  	0,003969  	0,004270  	0,000001  	-0,000000  	25,042471  	19,701395  	21,591965  	32,473154  	47,354385  	45,175714  	47,025558  	52,685012  	63,422365  	61,941907  	64,551922  	71,211137  	25,822014  	23,159333  	19,468114  	73,119912  	-0,018325  	-0,009286  	2105,091322  	24483,498081  	-0,018195  	-0,049983  	0,240147  	0,121684  	-2,771152  	4732,780274  	1066,107936  	0,154626  	-0,047937  
265,594000  	9,960226  	64,108517  	57,725912  	1256,670793  	80,245661  	74,841864  	0,004007  	0,006195  	0,003964  	0,004060  	0,004239  	0,000000  	-0,000000  	25,038200  	19,696937  	21,589548  	32,468096  	47,351806  	45,162035  	47,019470  	52,691472  	63,418464  	61,942068  	64,533912  	71,209855  	25,819726  	23,147307  	19,457302  	73,111461  	0,055031  	0,027885  	-6321,700798  	24488,381709  	-0,018199  	-0,049994  	0,215432  	0,109161  	-2,473423  	4709,914907  	1084,417351  	0,157281  	-0,047946  
266,597000  	9,960594  	64,105844  	657,272221  	1256,670793  	80,241725  	74,851035  	0,004006  	0,006175  	0,003961  	0,003935  	0,004209  	0,000001  	-0,000000  	25,047835  	19,703577  	21,596489  	32,476800  	47,360544  	45,176570  	47,026168  	52,694591  	63,432291  	61,949084  	64,544030  	71,222610  	25,824417  	23,140513  	19,468398  	73,125037  	-0,046042  	-0,023330  	5288,836625  	9719,699103  	-0,013762  	-0,049983  	0,191523  	0,097046  	-2,193584  	4665,498608  	1062,231396  	0,154064  	-0,047937  
267,594000  	9,962062  	64,104258  	657,272221  	357,439972  	80,237007  	74,863636  	0,004010  	0,006194  	0,003962  	0,003952  	0,004276  	0,000002  	-0,000000  	25,042584  	19,699978  	21,588540  	32,473438  	47,367445  	45,176830  	47,023262  	52,689905  	63,428893  	61,942822  	64,544573  	71,218470  	25,821758  	23,127192  	19,465779  	73,124031  	-0,032181  	-0,016307  	3696,433072  	-7100,479691  	-0,021686  	-0,049976  	0,244987  	0,124137  	-2,796925  	4707,064606  	1136,867152  	0,164889  	-0,047931  
268,593000  	9,962307  	64,099657  	57,725912  	956,927186  	80,235569  	74,860018  	0,004007  	0,006184  	0,003962  	0,004010  	0,004222  	0,000003  	-0,000000  	25,045082  	19,708773  	21,589575  	32,485951  	47,364983  	45,177707  	47,029077  	52,697672  	63,431509  	61,954322  	64,540787  	71,218395  	25,824502  	23,120016  	19,473434  	73,134106  	0,015118  	0,007660  	-1736,346151  	21288,315102  	-0,021680  	-0,049958  	0,201797  	0,102252  	-2,304769  	4686,025158  	1082,616772  	0,157020  	-0,047915  
269,595000  	9,962888  	64,098196  	57,725912  	1256,670793  	80,240943  	74,862420  	0,004010  	0,006184  	0,003962  	0,003979  	0,004314  	-0,000001  	-0,000000  	25,041885  	19,696041  	21,591641  	32,475619  	47,359902  	45,169177  	47,023201  	52,691194  	63,426813  	61,947254  	64,523983  	71,207575  	25,811497  	23,091406  	19,465176  	73,131486  	-0,010253  	-0,005195  	1177,577578  	24496,502557  	-0,018205  	-0,050012  	0,274664  	0,139174  	-3,138733  	4686,177259  	1148,193146  	0,166531  	-0,047962  
270,594000  	9,963622  	64,097077  	1256,818530  	1256,670793  	80,245068  	74,873961  	0,004008  	0,006192  	0,003960  	0,004044  	0,004188  	0,000002  	-0,000000  	25,032050  	19,694021  	21,594644  	32,468404  	47,352418  	45,159230  	47,016597  	52,689000  	63,413367  	61,939472  	64,524246  	71,202395  	25,809260  	23,064395  	19,456177  	73,130317  	0,042554  	0,021562  	-4887,053321  	-1,992739  	-0,011064  	-0,049977  	0,174870  	0,088608  	-1,995580  	4703,434700  	1097,649840  	0,159201  	-0,047932  
271,595000  	9,963989  	64,089429  	357,499067  	1256,670793  	80,247380  	74,879326  	0,004007  	0,006183  	0,003962  	0,003977  	0,004305  	0,000001  	-0,000000  	25,041836  	19,702323  	21,595413  	32,478758  	47,362612  	45,173079  	47,022773  	52,695210  	63,427616  	61,955935  	64,526307  	71,219278  	25,809692  	23,054125  	19,467960  	73,139652  	-0,011690  	-0,005924  	1342,375061  	16228,958884  	-0,015674  	-0,049993  	0,267878  	0,135736  	-3,055237  	4683,027001  	1067,844965  	0,154878  	-0,047945  
272,593000  	9,964723  	64,077242  	957,045375  	57,696365  	80,249380  	74,887623  	0,004006  	0,006168  	0,003964  	0,003971  	0,004293  	0,000001  	-0,000000  	25,043423  	19,705420  	21,596668  	32,479120  	47,366371  	45,180491  	47,026971  	52,696089  	63,434822  	61,961942  	64,519770  	71,218855  	25,818420  	23,045056  	19,477832  	73,149790  	-0,016703  	-0,008464  	1917,553464  	-21301,565066  	-0,021690  	-0,049986  	0,258340  	0,130903  	-2,942998  	4650,905409  	1063,756592  	0,154285  	-0,047940  
273,596000  	9,965977  	64,075004  	1256,818530  	1256,670793  	80,253816  	74,881697  	0,004007  	0,006208  	0,003963  	0,004069  	0,004194  	0,000001  	-0,000000  	25,042617  	19,702329  	21,596605  	32,473799  	47,358721  	45,175051  	47,021223  	52,698596  	63,431927  	61,955126  	64,515347  	71,211528  	25,821026  	23,040227  	19,479395  	73,147352  	0,062235  	0,031535  	-7144,087948  	-1,992966  	-0,011065  	-0,049983  	0,179688  	0,091049  	-2,050954  	4736,693866  	1081,296348  	0,156829  	-0,047937  
274,594000  	9,966712  	64,072641  	1256,818530  	657,183579  	80,258690  	74,869781  	0,004010  	0,006110  	0,003968  	0,003936  	0,004294  	0,000002  	-0,000000  	25,043189  	19,693449  	21,590970  	32,468001  	47,352454  	45,170177  	47,010928  	52,700030  	63,429480  	61,950201  	64,507615  	71,212293  	25,812741  	23,031035  	19,470507  	73,139846  	-0,045296  	-0,022952  	5199,358331  	-9722,541773  	-0,013760  	-0,049979  	0,259108  	0,131292  	-2,966694  	4524,873172  	1137,015435  	0,164910  	-0,047933  
275,595000  	9,966436  	64,069284  	357,499067  	657,183579  	80,258972  	74,859363  	0,004004  	0,006014  	0,003960  	0,004034  	0,004205  	0,000002  	-0,000000  	25,043819  	19,698662  	21,593095  	32,466559  	47,358410  	45,170851  	47,011808  	52,701477  	63,427970  	61,953481  	64,504226  	71,213035  	25,814418  	23,023945  	19,472036  	73,148500  	0,034059  	0,017258  	-3909,295492  	7096,553636  	-0,021685  	-0,049972  	0,188823  	0,095678  	-2,166245  	4318,554287  	1010,523010  	0,146564  	-0,047927  
276,592000  	9,967599  	64,071025  	957,045375  	1256,670793  	80,255472  	74,864790  	0,004007  	0,006021  	0,003962  	0,004046  	0,004198  	0,000000  	-0,000000  	25,053400  	19,709770  	21,596263  	32,477904  	47,368507  	45,179225  	47,022306  	52,709826  	63,435523  	61,961020  	64,511153  	71,220526  	25,815772  	23,024914  	19,480239  	73,154505  	0,043615  	0,022100  	-5006,165317  	4416,728209  	-0,012270  	-0,050000  	0,183065  	0,092760  	-2,096717  	4334,593506  	1078,125917  	0,156369  	-0,047951  
277,594000  	9,967109  	64,066703  	1256,818530  	956,927186  	80,251160  	74,861047  	0,004007  	0,006029  	0,003960  	0,003887  	0,004276  	0,000003  	-0,000000  	25,051886  	19,702410  	21,588462  	32,477877  	47,361969  	45,178419  	47,019302  	52,705743  	63,435308  	61,954669  	64,504459  	71,219185  	25,806038  	23,013352  	19,467002  	73,144463  	-0,084791  	-0,042964  	9731,598817  	-4418,138352  	-0,012263  	-0,049968  	0,244545  	0,123913  	-2,800569  	4350,784118  	1080,067718  	0,156651  	-0,047924  
278,593000  	9,967782  	64,064589  	1256,818530  	-242,047242  	80,249661  	74,838027  	0,004009  	0,006006  	0,003959  	0,003971  	0,004224  	0,000002  	-0,000000  	25,044070  	19,699674  	21,588696  	32,465869  	47,353298  	45,170091  	47,013809  	52,693932  	63,430012  	61,948724  	64,490588  	71,205260  	25,802318  	23,003708  	19,466302  	73,143716  	-0,016581  	-0,008402  	1902,939542  	-35496,615810  	-0,021687  	-0,049980  	0,203602  	0,103167  	-2,340985  	4300,957271  	1125,117493  	0,163184  	-0,047934  
279,593000  	9,967507  	64,064030  	1256,818530  	657,183579  	80,247255  	74,806742  	0,004008  	0,005997  	0,003962  	0,004055  	0,004193  	0,000002  	-0,000000  	25,045135  	19,694217  	21,586116  	32,467575  	47,350803  	45,175240  	47,021014  	52,700801  	63,433628  	61,957428  	64,491471  	71,210082  	25,795243  	23,003038  	19,473038  	73,136302  	0,051111  	0,025898  	-5865,729710  	-9721,824540  	-0,013759  	-0,049975  	0,179410  	0,090908  	-2,073824  	4282,040869  	1109,328888  	0,160895  	-0,047930  
280,599000  	9,967385  	64,067885  	1256,818530  	57,696365  	80,247067  	74,795014  	0,004008  	0,006005  	0,003961  	0,004055  	0,004226  	-0,000000  	-0,000000  	25,036839  	19,684381  	21,583425  	32,459084  	47,353708  	45,172584  	47,014019  	52,702668  	63,422950  	61,957349  	64,485363  	71,206667  	25,782876  	23,004670  	19,470670  	73,136862  	0,051269  	0,025978  	-5884,304365  	-24496,091479  	-0,018202  	-0,050006  	0,205366  	0,104061  	-2,378890  	4300,506628  	1102,882110  	0,159960  	-0,047957  
281,595000  	9,967782  	64,073543  	1256,818530  	1256,670793  	80,248473  	74,780135  	0,004010  	0,006019  	0,003964  	0,004037  	0,004244  	-0,000001  	-0,000000  	25,046260  	19,691242  	21,590148  	32,468781  	47,357873  	45,179190  	47,007299  	52,710134  	63,439776  	61,959533  	64,478336  	71,206462  	25,787136  	23,018758  	19,468409  	73,145992  	0,036957  	0,018726  	-4242,062828  	-1,993997  	-0,011071  	-0,050012  	0,219637  	0,111291  	-2,551786  	4329,245920  	1137,262574  	0,164946  	-0,047962  
282,595000  	9,968088  	64,079636  	1256,818530  	1256,670793  	80,248036  	74,765351  	0,004004  	0,006159  	0,003965  	0,003986  	0,004233  	0,000002  	-0,000000  	25,048739  	19,700073  	21,594485  	32,480111  	47,350137  	45,179667  	47,011068  	52,704229  	63,436984  	61,963271  	64,479432  	71,215004  	25,778785  	23,028575  	19,465685  	73,140427  	-0,004713  	-0,002388  	541,091640  	-1,992813  	-0,011064  	-0,049979  	0,210471  	0,106647  	-2,451713  	4630,531668  	1015,529325  	0,147290  	-0,047933  
283,594000  	9,968272  	64,083273  	1256,818530  	357,439972  	80,243349  	74,758551  	0,004003  	0,006219  	0,003963  	0,003946  	0,004262  	-0,000000  	-0,000000  	25,054155  	19,705598  	21,594953  	32,481206  	47,359033  	45,184877  	47,013475  	52,714876  	63,451264  	61,971503  	64,485348  	71,220859  	25,784511  	23,027272  	19,477339  	73,151302  	-0,036919  	-0,018707  	4238,529490  	-16235,508068  	-0,015676  	-0,050004  	0,233722  	0,118429  	-2,723602  	4760,117407  	999,733659  	0,144999  	-0,047955  
284,593000  	9,967354  	64,084455  	1256,818530  	956,927186  	80,236601  	74,750504  	0,004008  	0,006172  	0,003962  	0,004039  	0,004262  	0,000003  	-0,000000  	25,041521  	19,698448  	21,590278  	32,465438  	47,349725  	45,183742  	47,011274  	52,710414  	63,438934  	61,954358  	64,470620  	71,207780  	25,768810  	23,014693  	19,471415  	73,140982  	0,038577  	0,019547  	-4429,046609  	-4418,082672  	-0,012263  	-0,049968  	0,233977  	0,118558  	-2,727210  	4660,296757  	1092,099821  	0,158396  	-0,047924  
285,593000  	9,968058  	64,089771  	1256,818530  	956,927186  	80,234195  	74,752344  	0,004006  	0,006167  	0,003961  	0,003963  	0,004229  	0,000001  	-0,000000  	25,048362  	19,696431  	21,579208  	32,467250  	47,356669  	45,184706  	47,011866  	52,702140  	63,442133  	61,967571  	64,473182  	71,202766  	25,763848  	23,017473  	19,460130  	73,155552  	-0,023632  	-0,011974  	2713,384463  	-4419,679591  	-0,012268  	-0,049988  	0,207636  	0,105211  	-2,418310  	4648,297056  	1065,013467  	0,154467  	-0,047941  
286,596000  	9,967996  	64,088714  	1256,818530  	357,439972  	80,233695  	74,776860  	0,004009  	0,006217  	0,003962  	0,004092  	0,004266  	0,000001  	-0,000000  	25,051240  	19,700880  	21,603843  	32,479545  	47,357736  	45,184489  	47,022722  	52,706664  	63,448786  	61,961954  	64,466420  	71,216853  	25,783224  	23,024032  	19,476945  	73,150518  	0,080897  	0,040991  	-9288,374433  	-16230,188070  	-0,015671  	-0,049986  	0,237126  	0,120154  	-2,749190  	4756,091332  	1110,705802  	0,161094  	-0,047939  
287,595000  	9,967446  	64,080973  	357,499067  	1256,670793  	80,231758  	74,801845  	0,004013  	0,006190  	0,003965  	0,004035  	0,004215  	0,000002  	-0,000000  	25,045430  	19,695738  	21,599136  	32,483588  	47,349518  	45,187842  	47,020190  	52,717174  	63,453192  	61,973315  	64,472444  	71,212349  	25,767062  	23,028625  	19,469036  	73,136842  	0,035022  	0,017746  	-4020,569038  	16225,544056  	-0,015670  	-0,049981  	0,196265  	0,099449  	-2,264240  	4698,810125  	1204,413571  	0,174685  	-0,047935  
288,598000  	9,967262  	64,074258  	957,045375  	1256,670793  	80,232632  	74,818002  	0,004006  	0,006176  	0,003964  	0,003949  	0,004265  	-0,000000  	-0,000000  	25,040184  	19,702703  	21,592200  	32,465069  	47,353159  	45,190519  	47,007230  	52,701120  	63,442168  	61,957764  	64,464539  	71,205530  	25,775749  	23,014486  	19,469316  	73,129164  	-0,035032  	-0,017751  	4021,285821  	4416,906099  	-0,012271  	-0,050002  	0,236261  	0,119715  	-2,717989  	4668,523648  	1059,717647  	0,153699  	-0,047953  
289,594000  	9,967018  	64,066579  	57,725912  	57,696365  	80,239631  	74,842426  	0,004010  	0,006158  	0,003961  	0,004009  	0,004251  	0,000000  	-0,000000  	25,054596  	19,711297  	21,600011  	32,487697  	47,353738  	45,192703  	47,014586  	52,723262  	63,454506  	61,973840  	64,475979  	71,226264  	25,793941  	23,050479  	19,484059  	73,155829  	0,014274  	0,007233  	-1638,258599  	-1,524998  	-0,051179  	-0,049999  	0,224957  	0,113988  	-2,579634  	4629,667876  	1132,912940  	0,164315  	-0,047950  
290,596000  	9,967262  	64,063657  	1256,818530  	657,183579  	80,251129  	74,847229  	0,004011  	0,006205  	0,003965  	0,004011  	0,004193  	0,000002  	-0,000000  	25,038966  	19,694833  	21,587759  	32,470859  	47,346882  	45,169110  	47,012631  	52,702716  	63,444840  	61,966287  	64,450699  	71,214231  	25,780607  	23,027148  	19,472209  	73,135653  	0,015228  	0,007716  	-1747,623920  	-9722,128670  	-0,013759  	-0,049976  	0,179368  	0,090887  	-2,059407  	4731,371041  	1154,124464  	0,167392  	-0,047931  
291,593000  	9,967721  	64,060113  	1256,818530  	-242,047242  	80,265221  	74,842457  	0,004008  	0,006205  	0,003960  	0,003945  	0,004214  	0,000000  	-0,000000  	25,044938  	19,691851  	21,597565  	32,457617  	47,350225  	45,176089  	47,002148  	52,704289  	63,444604  	61,966858  	64,449984  	71,204118  	25,781532  	23,037170  	19,473778  	73,134698  	-0,037648  	-0,019076  	4320,327491  	-35508,145783  	-0,021694  	-0,049998  	0,196012  	0,099321  	-2,258350  	4731,588934  	1091,358406  	0,158288  	-0,047949  
292,592000  	9,966926  	64,050600  	1256,818530  	-242,047242  	80,273282  	74,853686  	0,004008  	0,006187  	0,003960  	0,004046  	0,004205  	0,000001  	-0,000000  	25,045067  	19,701028  	21,593613  	32,467081  	47,342493  	45,181688  	47,008210  	52,697017  	63,453042  	61,963386  	64,454642  	71,214714  	25,783926  	23,047333  	19,470326  	73,138668  	0,044306  	0,022450  	-5083,595139  	-35502,357393  	-0,021690  	-0,049989  	0,188429  	0,095478  	-2,169718  	4692,134663  	1106,878689  	0,160539  	-0,047942  
293,596000  	9,968853  	64,045626  	1256,818530  	57,696365  	80,275125  	74,867535  	0,004010  	0,006206  	0,003962  	0,003995  	0,004194  	0,000002  	-0,000000  	25,043547  	19,697786  	21,587518  	32,459874  	47,339167  	45,169587  	46,997211  	52,695163  	63,434322  	61,955629  	64,440215  	71,215417  	25,784954  	23,055592  	19,468291  	73,127700  	0,002860  	0,001449  	-328,075499  	-24484,705430  	-0,018193  	-0,049980  	0,179601  	0,091005  	-2,063491  	4733,231624  	1144,464889  	0,165991  	-0,047934  
294,593000  	9,968058  	64,045564  	1256,818530  	1256,670793  	80,277750  	74,875146  	0,004008  	0,005971  	0,003963  	0,004024  	0,004204  	0,000001  	-0,000000  	25,042935  	19,700953  	21,588603  	32,457211  	47,335724  	45,163278  	46,994982  	52,690705  	63,436826  	61,963356  	64,436929  	71,208858  	25,799718  	23,054921  	19,475127  	73,123774  	0,025692  	0,013018  	-2947,466683  	-1,993213  	-0,011066  	-0,049990  	0,187606  	0,095061  	-2,153483  	4225,822954  	1092,459936  	0,158448  	-0,047943  
295,597000  	9,967232  	64,045657  	1256,818530  	1256,670793  	80,277062  	74,880293  	0,004008  	0,006111  	0,003963  	0,003999  	0,004166  	0,000001  	-0,000000  	25,042864  	19,695801  	21,583102  	32,462209  	47,332500  	45,173228  	46,999427  	52,691521  	63,442149  	61,970520  	64,432383  	71,216198  	25,801017  	23,062850  	19,470361  	73,121285  	0,005638  	0,002857  	-646,880950  	-1,993081  	-0,011066  	-0,049987  	0,157880  	0,079999  	-1,810312  	4527,317398  	1093,794483  	0,158641  	-0,047940  
296,594000  	9,967354  	64,045906  	57,725912  	1256,670793  	80,272563  	74,872620  	0,004009  	0,006241  	0,003962  	0,004006  	0,004247  	0,000001  	-0,000000  	25,034140  	19,693785  	21,574233  	32,449178  	47,323397  	45,169010  	46,996807  	52,684470  	63,434344  	61,957257  	64,421190  	71,206954  	25,801011  	23,069129  	19,466647  	73,114262  	0,011606  	0,005881  	-1331,506111  	24487,441929  	-0,018198  	-0,049992  	0,221530  	0,112251  	-2,541628  	4808,694904  	1117,731589  	0,162113  	-0,047944  
297,595000  	9,967262  	64,047926  	1256,818530  	57,696365  	80,274594  	74,855027  	0,004005  	0,006186  	0,003963  	0,003992  	0,004257  	0,000000  	-0,000000  	25,038563  	19,693891  	21,579471  	32,452439  	47,328625  	45,164113  	46,996856  	52,694735  	63,439742  	61,960666  	64,418803  	71,206047  	25,807406  	23,083581  	19,478780  	73,109059  	-0,000023  	-0,000011  	2,597239  	-24490,950897  	-0,018198  	-0,049994  	0,230014  	0,116550  	-2,648547  	4690,815983  	1044,020836  	0,151422  	-0,047947  
298,593000  	9,968180  	64,040590  	1256,818530  	1256,670793  	80,275906  	74,849163  	0,004010  	0,006174  	0,003961  	0,004026  	0,004208  	0,000001  	-0,000000  	25,038552  	19,686556  	21,579464  	32,455108  	47,331386  	45,166584  	46,996465  	52,693088  	63,441457  	61,958721  	64,424101  	71,208313  	25,798473  	23,094996  	19,473783  	73,106258  	0,027604  	0,013987  	-3166,623869  	-1,993030  	-0,011065  	-0,049985  	0,191203  	0,096884  	-2,204570  	4664,625620  	1142,473660  	0,165702  	-0,047939  
299,595000  	9,968088  	64,034807  	1256,818530  	1256,670793  	80,278218  	74,843174  	0,004010  	0,006197  	0,003961  	0,003966  	0,004242  	-0,000001  	-0,000000  	25,035425  	19,690978  	21,580030  	32,452993  	47,328394  	45,166675  	46,992937  	52,687358  	63,433210  	61,952300  	64,420976  	71,208943  	25,796126  	23,112005  	19,466092  	73,109690  	-0,020887  	-0,010583  	2395,740740  	-1,993868  	-0,011070  	-0,050009  	0,217718  	0,110319  	-2,514122  	4713,935323  	1148,821583  	0,166622  	-0,047959  
300,593000  	9,968211  	64,036921  	1256,818530  	1256,670793  	80,282905  	74,855090  	0,004006  	0,006186  	0,003964  	0,003982  	0,004271  	0,000000  	-0,000000  	25,037402  	19,698415  	21,586701  	32,457618  	47,331875  	45,169812  	46,994333  	52,691367  	63,434400  	61,957797  	64,414090  	71,213882  	25,803536  	23,135070  	19,471430  	73,117636  	-0,008104  	-0,004106  	929,554761  	-1,993389  	-0,011067  	-0,049995  	0,241017  	0,122125  	-2,779476  	4688,785613  	1047,233634  	0,151888  	-0,047947  
