06/23/2020 12:41:57
Tempo T_f_e T_f_s AR AR T_q_e T_q_s Corrente_P_f Corrente_P_q Corrente_P_RESERVA Corrente_eletromag_f Corrente_eletromag_q AR AR T_1 T_2 T_3 T_4 T_5 T_6 T_7 T_8 T_9 T_10 T_11 T_12 T_13 T_14 T_15 T_16 Velocidade_f_(m/s) Vazao_f_(L/s) q_f_(W) AR AR AR Velocidade_q_(m/s) Vazao_q_(L/s) q_q_(W) DeltaP_q_(Pa) DeltaP_f_(Pa) DeltaP_f_(Psi) AR
0,008000  	23,092863  	31,138515  	24,812538  	1256,670793  	80,013022  	70,009424  	0,007466  	0,006337  	0,003961  	0,004284  	0,004204  	0,000001  	-0,000001  	26,432673  	24,700221  	25,689467  	25,609248  	28,713352  	27,511304  	28,961873  	28,644623  	31,504448  	31,060533  	34,354127  	62,752194  	27,012533  	26,308512  	28,035379  	68,618257  	0,236974  	0,120076  	-4039,269937  	25537,486817  	-0,018526  	-0,049992  	0,187973  	0,095247  	-3,992224  	5015,383784  	75601,667339  	10,965095  	-0,047944  
2,555000  	23,056072  	31,133652  	24,813583  	1256,670793  	80,010398  	70,013660  	0,007467  	0,006284  	0,003959  	0,004233  	0,004238  	0,000000  	-0,000000  	26,429820  	24,696256  	25,701319  	25,612249  	28,709945  	27,516849  	28,953512  	28,637906  	31,508092  	31,061977  	34,349260  	62,743977  	27,011611  	26,293213  	28,039536  	68,627246  	0,195603  	0,099113  	-3347,329718  	25540,333334  	-0,018528  	-0,049998  	0,215115  	0,109000  	-4,565556  	4901,233812  	75631,260382  	10,969387  	-0,047950  
3,557000  	23,038476  	31,130142  	24,814228  	357,439972  	80,004212  	70,016525  	0,007473  	0,006320  	0,003958  	0,004318  	0,004221  	-0,000001  	-0,000000  	26,445737  	24,700054  	25,719671  	25,615388  	28,704984  	27,515105  	28,975503  	28,656069  	31,521154  	31,066302  	34,353333  	62,747210  	27,019267  	26,297945  	28,046338  	68,631602  	0,264384  	0,133965  	-4532,263706  	12506,467639  	-0,036477  	-0,050006  	0,201067  	0,101882  	-4,263546  	4978,489760  	75763,316949  	10,988540  	-0,047957  
4,572000  	23,025823  	31,126017  	24,814842  	-242,047242  	80,000025  	70,019578  	0,007463  	0,006349  	0,003962  	0,004245  	0,004221  	0,000000  	-0,000000  	26,427850  	24,687786  	25,706009  	25,604085  	28,699708  	27,506201  	28,972569  	28,640679  	31,504118  	31,051332  	34,346696  	62,743015  	27,017336  	26,296418  	28,032780  	68,624100  	0,204886  	0,103817  	-3516,017416  	-27069,231167  	-0,102910  	-0,049996  	0,201611  	0,102158  	-4,271967  	5041,831658  	75542,558927  	10,956522  	-0,047948  
5,554000  	23,032334  	31,111981  	24,814996  	1256,670793  	79,995683  	70,013411  	0,007467  	0,006332  	0,003958  	0,004277  	0,004221  	-0,000001  	-0,000000  	26,422470  	24,684279  	25,688648  	25,594966  	28,708710  	27,507481  	28,958735  	28,637793  	31,496261  	31,047132  	34,351692  	62,741269  	27,005956  	26,286662  	28,026987  	68,632995  	0,231409  	0,117257  	-3961,101624  	25548,221628  	-0,018534  	-0,050015  	0,201294  	0,101997  	-4,266044  	5004,362480  	75627,602735  	10,968856  	-0,047965  
6,555000  	23,014154  	31,101515  	24,814996  	1256,670793  	79,990809  	70,002945  	0,007473  	0,006339  	0,003959  	0,004274  	0,004222  	0,000001  	-0,000000  	26,436145  	24,695762  	25,696544  	25,617616  	28,716547  	27,515141  	28,963406  	28,642026  	31,510935  	31,058033  	34,353883  	62,742449  	27,014314  	26,308958  	28,032282  	68,626795  	0,228429  	0,115747  	-3913,828086  	25534,283634  	-0,018524  	-0,049985  	0,202098  	0,102405  	-4,285475  	5019,506780  	75757,752807  	10,987733  	-0,047938  
7,555000  	23,009547  	31,087016  	24,815180  	357,439972  	79,986904  	70,000111  	0,007474  	0,006330  	0,003959  	0,004226  	0,004252  	0,000000  	-0,000000  	26,448572  	24,703926  	25,706059  	25,622217  	28,714533  	27,523358  	28,966722  	28,655670  	31,523552  	31,071821  	34,358373  	62,750350  	27,022059  	26,315740  	28,041712  	68,632481  	0,189854  	0,096200  	-3248,913306  	12504,591298  	-0,036471  	-0,049998  	0,225809  	0,114419  	-4,787737  	5000,301032  	75782,191251  	10,991278  	-0,047950  
8,554000  	22,999106  	31,072056  	24,816286  	956,927186  	79,984404  	70,000298  	0,007466  	0,006288  	0,003957  	0,004306  	0,004252  	0,000000  	-0,000000  	26,444362  	24,695889  	25,704734  	25,618458  	28,717570  	27,525503  	28,962522  	28,656335  	31,513762  	31,066044  	34,355565  	62,747058  	27,017187  	26,307658  	28,042199  	68,630376  	0,254693  	0,129055  	-4356,052267  	22489,662181  	-0,022162  	-0,049997  	0,225905  	0,114468  	-4,788492  	4909,377224  	75610,677295  	10,966402  	-0,047949  
9,568000  	22,969410  	31,066300  	24,816686  	-242,047242  	79,984217  	70,011480  	0,007467  	0,006320  	0,003960  	0,004230  	0,004216  	0,000002  	-0,000000  	26,438266  	24,692672  	25,704287  	25,611334  	28,710394  	27,509040  	28,964842  	28,647825  	31,508696  	31,059141  	34,352174  	62,737921  	27,016314  	26,295892  	28,046506  	68,620626  	0,192694  	0,097639  	-3305,447446  	-27059,652791  	-0,102873  	-0,049976  	0,196972  	0,099807  	-4,170447  	4978,242154  	75635,482915  	10,969999  	-0,047931  
10,558000  	23,003436  	31,061375  	24,817915  	357,439972  	79,987341  	69,994785  	0,007474  	0,006354  	0,003964  	0,004277  	0,004243  	0,000002  	-0,000000  	26,437622  	24,698746  	25,704926  	25,611310  	28,703823  	27,512374  	28,970818  	28,647286  	31,504123  	31,055888  	34,356416  	62,738780  	27,019701  	26,294490  	28,045180  	68,622415  	0,231207  	0,117155  	-3947,019540  	12500,260592  	-0,036459  	-0,049979  	0,218477  	0,110704  	-4,634952  	5051,767739  	75786,717412  	10,991934  	-0,047934  
11,558000  	23,048303  	31,058512  	24,818929  	1256,670793  	79,994121  	69,979866  	0,007470  	0,006334  	0,003962  	0,004304  	0,004220  	-0,000001  	-0,000000  	26,434120  	24,689396  	25,704945  	25,610803  	28,703456  	27,510725  	28,961202  	28,643691  	31,506040  	31,052494  	34,353435  	62,738736  	27,023440  	26,287312  	28,040249  	68,624252  	0,252673  	0,128031  	-4287,896291  	25545,986212  	-0,018532  	-0,050011  	0,200272  	0,101479  	-4,257949  	5008,188349  	75684,458659  	10,977103  	-0,047961  
12,555000  	23,076740  	31,044045  	24,820342  	1256,670793  	79,997120  	69,970958  	0,007472  	0,006334  	0,003958  	0,004231  	0,004227  	0,000001  	-0,000000  	26,432126  	24,694339  	25,703866  	25,609982  	28,708135  	27,507058  	28,965813  	28,643719  	31,509020  	31,058209  	34,352665  	62,740474  	27,022683  	26,276049  	28,042916  	68,626077  	0,193929  	0,098265  	-3273,371178  	25535,808665  	-0,018525  	-0,049989  	0,206168  	0,104467  	-4,388519  	5008,278195  	75727,305373  	10,983317  	-0,047942  
13,573000  	23,104594  	31,040751  	24,821079  	1256,670793  	79,994496  	69,973917  	0,007473  	0,006334  	0,003959  	0,004305  	0,004228  	0,000000  	-0,000000  	26,428119  	24,693556  	25,698422  	25,609351  	28,704260  	27,504242  	28,962036  	28,643503  	31,504412  	31,060782  	34,351446  	62,744256  	27,017919  	26,263716  	28,040051  	68,625285  	0,253509  	0,128455  	-4262,306225  	25540,675745  	-0,018529  	-0,049999  	0,206852  	0,104813  	-4,400622  	5009,254470  	75749,286556  	10,986505  	-0,047951  
14,554000  	23,129470  	31,050355  	24,822001  	1256,670793  	79,988372  	69,979212  	0,007469  	0,006350  	0,003963  	0,004224  	0,004191  	0,000000  	-0,000000  	26,431343  	24,684381  	25,698838  	25,609988  	28,705337  	27,503045  	28,960178  	28,643697  	31,507137  	31,062737  	34,353330  	62,743412  	27,015617  	26,249690  	28,036647  	68,628312  	0,188374  	0,095451  	-3161,074484  	25538,788606  	-0,018527  	-0,049995  	0,177331  	0,089855  	-3,768280  	5042,619045  	75671,678080  	10,975249  	-0,047947  
15,557000  	23,117216  	31,061806  	24,823015  	1256,670793  	79,987060  	69,984756  	0,007471  	0,006325  	0,003959  	0,004290  	0,004253  	-0,000001  	-0,000000  	26,436696  	24,687390  	25,700911  	25,607488  	28,712434  	27,507987  	28,970014  	28,643347  	31,509786  	31,061709  	34,355314  	62,743780  	27,019540  	26,240069  	28,038690  	68,631724  	0,241849  	0,122547  	-4070,571358  	25548,236549  	-0,018534  	-0,050016  	0,226548  	0,114794  	-4,810861  	4990,241855  	75721,811842  	10,982520  	-0,047965  
16,554000  	23,108249  	31,075227  	24,823384  	57,696365  	79,990622  	69,990175  	0,007474  	0,006302  	0,003959  	0,004302  	0,004227  	-0,000001  	-0,000000  	26,430398  	24,687560  	25,696613  	25,603946  	28,707192  	27,506868  	28,966359  	28,634831  	31,506740  	31,053194  	34,349974  	62,741933  	27,022303  	26,228255  	28,038101  	68,627534  	0,251589  	0,127482  	-4246,441880  	1781,305997  	-0,053868  	-0,050010  	0,205945  	0,104354  	-4,372543  	4940,901732  	75775,476151  	10,990304  	-0,047960  
17,556000  	23,077416  	31,094804  	24,826364  	1256,670793  	79,989684  	69,996965  	0,007470  	0,006329  	0,003961  	0,004232  	0,004254  	-0,000000  	-0,000000  	26,427420  	24,687042  	25,695313  	25,607432  	28,701206  	27,503783  	28,961376  	28,635438  	31,508473  	31,056689  	34,349580  	62,739233  	27,022210  	26,214201  	28,040658  	68,627658  	0,194481  	0,098545  	-3303,320765  	25541,310558  	-0,018529  	-0,050001  	0,227666  	0,115360  	-4,829972  	4999,140820  	75701,751276  	10,979611  	-0,047952  
18,554000  	23,043451  	31,106317  	24,827532  	1256,670793  	79,986248  	69,999146  	0,007462  	0,006327  	0,003960  	0,004294  	0,004243  	0,000001  	-0,000000  	26,429925  	24,687188  	25,693883  	25,607551  	28,698824  	27,506580  	28,957551  	28,642692  	31,501769  	31,061065  	34,348880  	62,744646  	27,023569  	26,209588  	28,040985  	68,631343  	0,244703  	0,123993  	-4179,951572  	25535,642988  	-0,018525  	-0,049989  	0,218571  	0,110751  	-4,634408  	4994,277128  	75514,611120  	10,952468  	-0,047942  
19,557000  	23,034698  	31,110472  	24,829375  	1256,670793  	79,986935  	69,993851  	0,007470  	0,006343  	0,003955  	0,004259  	0,004262  	0,000002  	-0,000000  	26,426230  	24,678845  	25,694093  	25,604035  	28,696532  	27,505991  	28,962155  	28,633770  	31,500813  	31,054218  	34,345739  	62,738488  	27,020543  	26,207823  	28,034264  	68,636873  	0,216095  	0,109497  	-3697,181154  	25531,990327  	-0,018522  	-0,049981  	0,233463  	0,118297  	-4,953134  	5028,876197  	75686,471070  	10,977395  	-0,047935  
20,556000  	23,038506  	31,106655  	24,830911  	1256,670793  	79,986248  	69,998336  	0,007474  	0,006314  	0,003960  	0,004250  	0,004215  	0,000002  	-0,000000  	26,418815  	24,682769  	25,696298  	25,601483  	28,701821  	27,512943  	28,964244  	28,633874  	31,505483  	31,053331  	34,346491  	62,741163  	27,027655  	26,216709  	28,035573  	68,642714  	0,208948  	0,105875  	-3571,530801  	25530,244155  	-0,018521  	-0,049977  	0,196574  	0,099605  	-4,168341  	4965,795346  	75769,919071  	10,989498  	-0,047932  
21,558000  	23,060433  	31,093665  	24,832325  	57,696365  	79,986997  	69,988867  	0,007465  	0,006337  	0,003958  	0,004311  	0,004196  	-0,000002  	-0,000000  	26,428517  	24,693567  	25,697411  	25,602900  	28,703988  	27,504576  	28,957865  	28,629696  	31,508130  	31,056235  	34,346488  	62,748111  	27,027863  	26,211978  	28,038228  	68,643553  	0,258830  	0,131151  	-4405,008551  	1781,068192  	-0,053875  	-0,050019  	0,181296  	0,091864  	-3,848305  	5014,503721  	75592,325513  	10,963740  	-0,047968  
22,558000  	23,078061  	31,084061  	24,833738  	657,183579  	79,991309  	69,979835  	0,007467  	0,006342  	0,003961  	0,004245  	0,004231  	-0,000000  	-0,000000  	26,430750  	24,700085  	25,702449  	25,605319  	28,708203  	27,505039  	28,965093  	28,637773  	31,508555  	31,062936  	34,344619  	62,751696  	27,031876  	26,220602  	28,046506  	68,636243  	0,205249  	0,104001  	-3481,270192  	18462,286679  	-0,027575  	-0,050006  	0,209455  	0,106133  	-4,451965  	5026,260061  	75623,923906  	10,968323  	-0,047956  
23,576000  	23,091788  	31,079998  	24,835305  	657,183579  	79,992715  	69,988057  	0,007473  	0,006343  	0,003963  	0,004306  	0,004267  	0,000000  	-0,000000  	26,427081  	24,689434  	25,703816  	25,611859  	28,702311  	27,494857  	28,965735  	28,638032  	31,498828  	31,050590  	34,345571  	62,743481  	27,029795  	26,221810  	28,048264  	68,631990  	0,254743  	0,129080  	-4311,151095  	18458,310513  	-0,027569  	-0,049994  	0,237430  	0,120307  	-5,043121  	5027,442911  	75761,318659  	10,988250  	-0,047946  
24,555000  	23,099650  	31,078151  	24,836411  	1256,670793  	79,995714  	69,991920  	0,007463  	0,006332  	0,003961  	0,004290  	0,004217  	0,000001  	-0,000000  	26,423169  	24,689539  	25,699284  	25,603455  	28,703327  	27,503393  	28,962990  	28,635040  	31,503528  	31,049384  	34,342339  	62,747379  	27,025288  	26,222110  	28,041829  	68,642723  	0,241453  	0,122346  	-4081,264636  	25536,475533  	-0,018526  	-0,049991  	0,198205  	0,100432  	-4,209612  	5005,008379  	75543,942902  	10,956723  	-0,047944  
25,557000  	23,119765  	31,083569  	24,838286  	956,927186  	79,998557  	70,008334  	0,007472  	0,006331  	0,003960  	0,004242  	0,004255  	0,000001  	-0,000000  	26,425408  	24,688671  	25,703752  	25,601182  	28,700050  	27,497834  	28,957879  	28,636148  	31,493794  	31,045885  	34,343241  	62,743627  	27,024005  	26,243349  	28,036913  	68,638332  	0,202620  	0,102669  	-3418,553701  	22483,044851  	-0,022156  	-0,049983  	0,227956  	0,115507  	-4,834922  	5001,679845  	75737,452164  	10,984789  	-0,047936  
26,559000  	23,112456  	31,092249  	24,840129  	357,439972  	79,999119  	70,014501  	0,007472  	0,006338  	0,003959  	0,004250  	0,004243  	-0,000001  	-0,000000  	26,424093  	24,678938  	25,693349  	25,602065  	28,707109  	27,507566  	28,962965  	28,626657  	31,497534  	31,047424  	34,334375  	62,742465  	27,028559  	26,244146  	28,040579  	68,636528  	0,209572  	0,106192  	-3542,947057  	12506,669986  	-0,036480  	-0,050013  	0,218763  	0,110849  	-4,637346  	5018,609738  	75731,895083  	10,983983  	-0,047963  
27,555000  	23,073393  	31,100745  	24,841788  	1256,670793  	79,997026  	70,013348  	0,007474  	0,006262  	0,003961  	0,004290  	0,004186  	-0,000001  	-0,000000  	26,424129  	24,685895  	25,691465  	25,598567  	28,702931  	27,500008  	28,958175  	28,631674  	31,497035  	31,053347  	34,353148  	62,735315  	27,029966  	26,246015  	28,038075  	68,639687  	0,241445  	0,122342  	-4106,125185  	25543,660921  	-0,018531  	-0,050007  	0,173298  	0,087811  	-3,673227  	4852,668341  	75770,554569  	10,989590  	-0,047958  
28,558000  	23,068541  	31,109918  	24,844984  	1256,670793  	79,997839  	70,008490  	0,007469  	0,006301  	0,003959  	0,004248  	0,004267  	-0,000001  	-0,000000  	26,424744  	24,684961  	25,697709  	25,595960  	28,693933  	27,501285  	28,938713  	28,627088  	31,500165  	31,048551  	34,331344  	62,734811  	27,031880  	26,258767  	28,036454  	68,643912  	0,207601  	0,105193  	-3536,729942  	25546,858405  	-0,018533  	-0,050015  	0,238062  	0,120628  	-5,048834  	4937,486182  	75662,802285  	10,973962  	-0,047964  
29,561000  	23,078613  	31,114997  	24,846950  	1256,670793  	79,999526  	70,016837  	0,007467  	0,006347  	0,003959  	0,004302  	0,004222  	-0,000001  	-0,000000  	26,423177  	24,682053  	25,698865  	25,602048  	28,709042  	27,501441  	28,960415  	28,627155  	31,496756  	31,044600  	34,339305  	62,733999  	27,035595  	26,253187  	28,046578  	68,642474  	0,251347  	0,127360  	-4279,336793  	25546,057751  	-0,018533  	-0,050013  	0,202009  	0,102359  	-4,281370  	5036,805960  	75635,334632  	10,969978  	-0,047963  
30,558000  	23,079350  	31,107671  	24,849531  	1256,670793  	80,005087  	70,009549  	0,007468  	0,006321  	0,003958  	0,004301  	0,004242  	0,000001  	-0,000000  	26,428634  	24,686799  	25,697364  	25,591069  	28,702948  	27,504002  	28,952384  	28,632077  	31,498308  	31,052189  	34,344914  	62,745384  	27,037744  	26,260977  	28,039175  	68,635645  	0,250568  	0,126965  	-4261,789353  	25535,614549  	-0,018525  	-0,049990  	0,217999  	0,110462  	-4,626197  	4980,600779  	75654,667906  	10,972782  	-0,047943  
31,557000  	23,079535  	31,093819  	24,851651  	1256,670793  	80,007649  	69,976128  	0,007468  	0,006348  	0,003959  	0,004262  	0,004201  	0,000001  	-0,000000  	26,432857  	24,684357  	25,688681  	25,599812  	28,704688  	27,503167  	28,953508  	28,628934  	31,497073  	31,051779  	34,341340  	62,743358  	27,035664  	26,262684  	28,040354  	68,646760  	0,218753  	0,110844  	-3714,146555  	25534,988496  	-0,018525  	-0,049989  	0,185712  	0,094102  	-3,955201  	5038,271081  	75646,067494  	10,971534  	-0,047942  
32,558000  	23,081746  	31,086616  	24,854048  	1256,670793  	80,007586  	69,978495  	0,007469  	0,006328  	0,003956  	0,004279  	0,004225  	0,000001  	-0,000000  	26,432759  	24,685956  	25,700151  	25,602689  	28,707042  	27,503658  	28,960947  	28,638129  	31,509800  	31,054237  	34,347360  	62,747576  	27,035095  	26,270040  	28,048397  	68,648571  	0,232300  	0,117708  	-3939,540787  	25533,667093  	-0,018524  	-0,049986  	0,204480  	0,103612  	-4,353866  	4995,778329  	75663,939121  	10,974127  	-0,047940  
33,555000  	23,084663  	31,084338  	24,857489  	1256,670793  	80,005149  	69,980520  	0,007469  	0,006333  	0,003958  	0,004271  	0,004201  	0,000001  	-0,000000  	26,429116  	24,695496  	25,692431  	25,602613  	28,705274  	27,507908  	28,957323  	28,636113  	31,507698  	31,046777  	34,343563  	62,746812  	27,034947  	26,278563  	28,046161  	68,652250  	0,225997  	0,114514  	-3830,148628  	25535,547410  	-0,018525  	-0,049991  	0,185447  	0,093967  	-3,946842  	5006,072378  	75661,545411  	10,973779  	-0,047943  
34,556000  	23,095166  	31,094250  	24,858042  	1256,670793  	79,999776  	69,990051  	0,007473  	0,006332  	0,003960  	0,004314  	0,004249  	-0,000001  	-0,000000  	26,430466  	24,694467  	25,697691  	25,606103  	28,703348  	27,508152  	28,957897  	28,640255  	31,506767  	31,054212  	34,350668  	62,753887  	27,037846  	26,289592  	28,047953  	68,647279  	0,260813  	0,132156  	-4419,878782  	25543,352814  	-0,018531  	-0,050008  	0,223361  	0,113178  	-4,746696  	5005,423650  	75752,887714  	10,987027  	-0,047958  
35,555000  	23,084295  	31,096743  	24,859240  	357,439972  	79,996651  	69,996872  	0,007462  	0,006336  	0,003962  	0,004260  	0,004226  	0,000000  	-0,000000  	26,430665  	24,692054  	25,696324  	25,603675  	28,700311  	27,502773  	28,960063  	28,636418  	31,498429  	31,053989  	34,349355  	62,745972  	27,036239  	26,284510  	28,047663  	68,647382  	0,217299  	0,110107  	-3688,625768  	12501,578027  	-0,036467  	-0,049994  	0,205538  	0,104148  	-4,363609  	5013,309552  	75512,796419  	10,952205  	-0,047947  
36,557000  	23,092341  	31,101176  	24,861207  	956,927186  	79,992340  	70,000111  	0,007467  	0,006317  	0,003960  	0,004312  	0,004264  	-0,000000  	-0,000000  	26,426193  	24,686762  	25,692531  	25,596342  	28,697118  	27,499556  	28,956851  	28,631459  	31,502213  	31,044051  	34,341250  	62,740679  	27,027857  	26,283715  	28,042969  	68,639087  	0,259658  	0,131571  	-4405,667727  	22489,845769  	-0,022163  	-0,050002  	0,235652  	0,119406  	-4,999151  	4971,640266  	75626,013989  	10,968626  	-0,047953  
37,554000  	23,091389  	31,106317  	24,863941  	1256,670793  	79,993715  	70,006527  	0,007472  	0,006300  	0,003962  	0,004228  	0,004195  	0,000001  	-0,000000  	26,429102  	24,688153  	25,692612  	25,607598  	28,708396  	27,500971  	28,963779  	28,639070  	31,508263  	31,050818  	34,343854  	62,745842  	27,031335  	26,305026  	28,042111  	68,645451  	0,191742  	0,097157  	-3255,806609  	25535,532803  	-0,018525  	-0,049991  	0,180472  	0,091447  	-3,826632  	4935,641870  	75738,709038  	10,984971  	-0,047944  
38,557000  	23,086107  	31,107548  	24,864740  	1256,670793  	79,998588  	70,008583  	0,007465  	0,006330  	0,003955  	0,004256  	0,004216  	0,000000  	-0,000000  	26,431619  	24,691616  	25,697069  	25,611834  	28,711719  	27,502179  	28,970280  	28,643478  	31,509174  	31,059436  	34,347000  	62,749699  	27,033324  	26,314389  	28,042240  	68,651720  	0,214004  	0,108438  	-3636,771331  	25539,079092  	-0,018528  	-0,049999  	0,197344  	0,099996  	-4,185562  	5000,148224  	75583,329680  	10,962435  	-0,047951  
39,555000  	23,080395  	31,104962  	24,866215  	357,439972  	80,002931  	70,005593  	0,007465  	0,006328  	0,003957  	0,004309  	0,004228  	-0,000001  	-0,000000  	26,429887  	24,688801  	25,697127  	25,605051  	28,707052  	27,505226  	28,968111  	28,642497  	31,503245  	31,059164  	34,345791  	62,744037  	27,026315  	26,316331  	28,039947  	68,648199  	0,257215  	0,130333  	-4372,794852  	12505,173673  	-0,036478  	-0,050012  	0,206788  	0,104781  	-4,389079  	4995,012165  	75594,239069  	10,964017  	-0,047962  
40,556000  	23,067128  	31,102007  	24,867751  	-242,047242  	80,003431  	70,002977  	0,007471  	0,006318  	0,003966  	0,004243  	0,004192  	0,000000  	-0,000000  	26,428903  	24,686376  	25,698669  	25,609801  	28,703404  	27,513742  	28,964041  	28,642049  	31,502687  	31,057066  	34,348478  	62,738601  	27,021506  	26,317712  	28,044748  	68,653517  	0,203200  	0,102963  	-3458,957318  	-27071,180972  	-0,102897  	-0,049998  	0,178356  	0,090374  	-3,786783  	4974,897349  	75721,811842  	10,982520  	-0,047950  
41,554000  	23,062921  	31,101884  	24,869533  	956,927186  	80,001369  	69,993290  	0,007474  	0,006301  	0,003956  	0,004273  	0,004267  	-0,000000  	-0,000000  	26,432091  	24,686754  	25,701700  	25,616152  	28,703006  	27,520010  	28,964316  	28,647195  	31,508617  	31,057384  	34,354146  	62,746007  	27,024460  	26,320142  	28,047524  	68,658601  	0,227484  	0,115268  	-3874,290191  	22490,181984  	-0,022164  	-0,050003  	0,237887  	0,120539  	-5,054580  	4938,113686  	75781,442775  	10,991169  	-0,047954  
42,555000  	23,090437  	31,102561  	24,871254  	-242,047242  	79,998932  	69,997090  	0,007464  	0,006363  	0,003956  	0,004306  	0,004230  	0,000000  	-0,000000  	26,435376  	24,686870  	25,697127  	25,612298  	28,705268  	27,514695  	28,965994  	28,648538  	31,511148  	31,058705  	34,352820  	62,751093  	27,027103  	26,326916  	28,049889  	68,660276  	0,254317  	0,128864  	-4316,824434  	-27072,018985  	-0,102898  	-0,049999  	0,208687  	0,105743  	-4,431366  	5071,704278  	75557,436651  	10,958680  	-0,047951  
43,555000  	23,117063  	31,098313  	24,873097  	-242,047242  	79,996308  	69,999395  	0,007464  	0,006344  	0,003963  	0,004277  	0,004258  	0,000001  	-0,000000  	26,429050  	24,684576  	25,695674  	25,606391  	28,703681  	27,509176  	28,964040  	28,636221  	31,511106  	31,053186  	34,343893  	62,742337  	27,022230  	26,322150  	28,051230  	68,660050  	0,231168  	0,117135  	-3908,761418  	-27065,461512  	-0,102873  	-0,049986  	0,230813  	0,116954  	-4,898786  	5030,070366  	75561,369680  	10,959250  	-0,047939  
44,559000  	23,126706  	31,089633  	24,874204  	956,927186  	79,993058  	69,997090  	0,007476  	0,006332  	0,003956  	0,004232  	0,004210  	0,000000  	-0,000000  	26,421103  	24,679717  	25,696865  	25,602123  	28,702809  	27,510589  	28,960745  	28,630641  	31,505689  	31,047179  	34,337604  	62,737533  	27,019434  	26,319057  	28,032686  	68,643290  	0,194989  	0,098802  	-3289,449501  	22486,436674  	-0,022160  	-0,049994  	0,192429  	0,097505  	-4,083739  	5004,537220  	75826,012396  	10,997633  	-0,047947  
45,555000  	23,093385  	31,092711  	24,876877  	57,696365  	79,991121  	69,994972  	0,007468  	0,006337  	0,003960  	0,004253  	0,004201  	0,000000  	-0,000000  	26,421601  	24,683973  	25,691861  	25,605021  	28,700871  	27,503723  	28,956159  	28,634395  	31,505792  	31,053291  	34,338206  	62,736670  	27,023953  	26,324943  	28,036603  	68,641900  	0,211650  	0,107245  	-3586,846618  	1777,882308  	-0,053852  	-0,049998  	0,185207  	0,093846  	-3,930550  	5014,392652  	75644,097449  	10,971249  	-0,047950  
46,555000  	23,072625  	31,099421  	24,877983  	1256,670793  	79,987560  	70,003195  	0,007470  	0,006338  	0,003961  	0,004291  	0,004256  	0,000000  	-0,000000  	26,420335  	24,691287  	25,696489  	25,608101  	28,702618  	27,504723  	28,959308  	28,640169  	31,510285  	31,054594  	34,346098  	62,738921  	27,030408  	26,320511  	28,045536  	68,645329  	0,242801  	0,123029  	-4128,896026  	25538,002755  	-0,018527  	-0,049998  	0,229278  	0,116177  	-4,860110  	5018,035999  	75681,577733  	10,976685  	-0,047949  
47,555000  	23,043881  	31,113551  	24,878259  	1256,670793  	79,978625  	70,011698  	0,007467  	0,006324  	0,003961  	0,004297  	0,004222  	-0,000001  	-0,000000  	26,428042  	24,693183  	25,701782  	25,608332  	28,701635  	27,505021  	28,961251  	28,632354  	31,505967  	31,051228  	34,345147  	62,741505  	27,032453  	26,326694  	28,033246  	68,642195  	0,247112  	0,125213  	-4224,652581  	25543,724144  	-0,018532  	-0,050010  	0,201769  	0,102238  	-4,269528  	4986,945864  	75628,301783  	10,968958  	-0,047960  
48,555000  	23,036510  	31,119338  	24,879673  	57,696365  	79,976250  	70,015747  	0,007472  	0,006339  	0,003960  	0,004311  	0,004257  	-0,000000  	-0,000000  	26,428447  	24,691078  	25,709257  	25,618352  	28,708169  	27,507819  	28,966178  	28,637197  	31,510796  	31,053528  	34,351507  	62,740208  	27,036389  	26,324219  	28,048549  	68,658416  	0,258535  	0,131002  	-4427,165714  	1777,906355  	-0,053857  	-0,050004  	0,230128  	0,116607  	-4,866471  	5020,510646  	75744,435585  	10,985802  	-0,047955  
49,555000  	23,039213  	31,108348  	24,879365  	1256,670793  	79,975532  	70,006185  	0,007468  	0,006330  	0,003962  	0,004281  	0,004245  	0,000002  	-0,000001  	26,435321  	24,682930  	25,695136  	25,609541  	28,697619  	27,512532  	28,969947  	28,641955  	31,502254  	31,050486  	34,350533  	62,742670  	27,045603  	26,328076  	28,044782  	68,651257  	0,234404  	0,118774  	-4007,145939  	25527,353811  	-0,018520  	-0,049974  	0,220238  	0,111596  	-4,661470  	5001,169068  	75649,760446  	10,972070  	-0,047929  
50,557000  	23,010776  	31,095420  	24,880717  	1256,670793  	79,978156  	70,002634  	0,007473  	0,006337  	0,003961  	0,004297  	0,004199  	0,000000  	-0,000000  	26,435436  	24,691867  	25,701365  	25,612857  	28,714734  	27,505964  	28,964969  	28,645059  	31,513767  	31,052023  	34,357204  	62,740871  	27,038857  	26,329803  	28,042992  	68,648458  	0,247233  	0,125275  	-4234,576145  	25538,218966  	-0,018528  	-0,049998  	0,183595  	0,093029  	-3,888291  	5016,399676  	75756,615971  	10,987568  	-0,047950  
51,554000  	22,991337  	31,088863  	24,882008  	1256,670793  	79,981374  	70,001232  	0,007478  	0,006337  	0,003956  	0,004256  	0,004241  	-0,000001  	-0,000000  	26,422303  	24,690766  	25,706047  	25,609858  	28,709630  	27,515322  	28,958192  	28,637554  	31,505889  	31,049939  	34,345079  	62,741608  	27,039144  	26,325584  	28,037455  	68,640230  	0,214356  	0,108616  	-3677,324334  	25542,140114  	-0,018530  	-0,050007  	0,216758  	0,109833  	-4,592769  	5015,199848  	75863,697451  	11,003099  	-0,047957  
52,556000  	23,005217  	31,084246  	24,883114  	1256,670793  	79,979874  	69,988089  	0,007467  	0,006336  	0,003962  	0,004339  	0,004213  	-0,000000  	-0,000000  	26,432118  	24,684207  	25,697675  	25,605469  	28,695103  	27,505687  	28,962468  	28,636487  	31,510547  	31,051957  	34,347469  	62,735127  	27,031384  	26,331752  	28,032132  	68,641066  	0,281257  	0,142515  	-4813,992232  	25540,061989  	-0,018529  	-0,050002  	0,195195  	0,098907  	-4,140715  	5013,221121  	75624,573526  	10,968417  	-0,047953  
53,556000  	23,036909  	31,067408  	24,883882  	956,927186  	79,976500  	70,000672  	0,007469  	0,006273  	0,003960  	0,004255  	0,004222  	-0,000000  	-0,000000  	26,437414  	24,691357  	25,690783  	25,610794  	28,705239  	27,495330  	28,964764  	28,636970  	31,497732  	31,057714  	34,339010  	62,734678  	27,026549  	26,332674  	28,038342  	68,643529  	0,213590  	0,108228  	-3633,838272  	22490,853443  	-0,022165  	-0,050006  	0,202439  	0,102577  	-4,287522  	4876,623175  	75665,640845  	10,974373  	-0,047957  
54,555000  	23,052756  	31,058235  	24,884742  	357,439972  	79,972501  	69,990705  	0,007470  	0,006221  	0,003959  	0,004306  	0,004249  	-0,000000  	-0,000000  	26,433040  	24,687419  	25,699214  	25,604398  	28,709013  	27,511284  	28,962165  	28,645819  	31,505457  	31,055314  	34,344736  	62,737066  	27,039609  	26,343751  	28,037920  	68,644193  	0,254947  	0,129183  	-4323,933827  	12501,898399  	-0,036471  	-0,050002  	0,223152  	0,113073  	-4,729027  	4765,610727  	75702,252614  	10,979683  	-0,047953  
55,554000  	23,111995  	31,054449  	24,885388  	1256,670793  	79,968971  	69,986095  	0,007468  	0,006329  	0,003955  	0,004308  	0,004208  	0,000001  	-0,000000  	26,435787  	24,683185  	25,699246  	25,608691  	28,703777  	27,509371  	28,957369  	28,639525  	31,503142  	31,062281  	34,350571  	62,737290  	27,042611  	26,342222  	28,044167  	68,640432  	0,256184  	0,129810  	-4310,685413  	25532,552362  	-0,018524  	-0,049986  	0,190612  	0,096585  	-4,039880  	4998,092385  	75646,498221  	10,971597  	-0,047940  
56,557000  	23,142153  	31,057650  	24,885326  	57,696365  	79,971595  	69,981485  	0,007467  	0,006362  	0,003960  	0,004267  	0,004236  	0,000001  	-0,000000  	26,426524  	24,702331  	25,713225  	25,608490  	28,710196  	27,512599  	28,962430  	28,642801  	31,509177  	31,068154  	34,352154  	62,746663  	27,043726  	26,350857  	28,052291  	68,648860  	0,222743  	0,112866  	-3735,271909  	1777,021893  	-0,053839  	-0,049986  	0,213126  	0,107992  	-4,520306  	5069,834498  	75632,983288  	10,969637  	-0,047940  
57,555000  	23,130207  	31,060790  	24,887938  	-242,047242  	79,977437  	69,947536  	0,007464  	0,006328  	0,003957  	0,004315  	0,004224  	-0,000000  	-0,000000  	26,437125  	24,702761  	25,708249  	25,611396  	28,713149  	27,510073  	28,961921  	28,640706  	31,513003  	31,064909  	34,355556  	62,747740  	27,039776  	26,359205  	28,054085  	68,639886  	0,261523  	0,132516  	-4393,954904  	-27074,126065  	-0,102900  	-0,050003  	0,203693  	0,103213  	-4,337423  	4996,487190  	75562,351172  	10,959392  	-0,047954  
58,554000  	23,148449  	31,066084  	24,888798  	-242,047242  	79,983686  	69,942553  	0,007469  	0,006327  	0,003959  	0,004261  	0,004197  	-0,000000  	-0,000000  	26,431486  	24,691834  	25,696138  	25,614260  	28,705339  	27,506943  	28,967399  	28,639736  	31,510899  	31,056896  	34,355687  	62,742559  	27,045875  	26,362839  	28,044907  	68,651084  	0,218429  	0,110680  	-3663,919971  	-27074,356068  	-0,102900  	-0,050003  	0,182344  	0,092395  	-3,887180  	4994,118660  	75672,920832  	10,975429  	-0,047954  
59,555000  	23,143750  	31,082522  	24,890181  	-242,047242  	79,987966  	69,954731  	0,007469  	0,006329  	0,003964  	0,004296  	0,004236  	0,000001  	-0,000000  	26,428673  	24,682583  	25,689477  	25,604038  	28,698467  	27,502494  	28,961182  	28,630077  	31,500367  	31,051314  	34,350322  	62,745163  	27,037240  	26,362501  	28,036428  	68,649233  	0,246248  	0,124775  	-4141,566206  	-27064,993574  	-0,102864  	-0,049984  	0,212983  	0,107920  	-4,536775  	4997,951603  	75661,255906  	10,973737  	-0,047938  
60,557000  	23,130729  	31,094466  	24,892086  	956,927186  	79,988403  	69,967563  	0,007467  	0,006349  	0,003961  	0,004343  	0,004208  	-0,000001  	-0,000000  	26,420353  	24,683719  	25,696856  	25,604613  	28,699260  	27,502854  	28,953379  	28,627230  	31,501379  	31,049298  	34,342189  	62,738747  	27,038886  	26,369621  	28,045192  	68,643687  	0,284264  	0,144039  	-4795,991452  	22490,711624  	-0,022165  	-0,050007  	0,191065  	0,096814  	-4,064865  	5040,254760  	75628,605410  	10,969002  	-0,047957  
61,554000  	23,137976  	31,117060  	24,892639  	1256,670793  	79,990215  	69,971238  	0,007475  	0,006330  	0,003962  	0,004275  	0,004203  	0,000002  	-0,000000  	26,423667  	24,687195  	25,696510  	25,603558  	28,693813  	27,495505  	28,956308  	28,630793  	31,495561  	31,049349  	34,339904  	62,735699  	27,041346  	26,373050  	28,043491  	68,642694  	0,229119  	0,116096  	-3873,050654  	25525,713758  	-0,018519  	-0,049972  	0,186985  	0,094747  	-3,977327  	5000,496287  	75796,249888  	10,993317  	-0,047927  
62,556000  	23,139512  	31,129127  	24,892762  	657,183579  	79,990278  	69,975723  	0,007467  	0,006336  	0,003960  	0,004302  	0,004286  	0,000000  	-0,000000  	26,433147  	24,688200  	25,703430  	25,603913  	28,702699  	27,501588  	28,965250  	28,635046  	31,502296  	31,055207  	34,342370  	62,740844  	27,040293  	26,383053  	28,048254  	68,647544  	0,250975  	0,127171  	-4248,115074  	18457,165145  	-0,027569  	-0,049998  	0,252432  	0,127909  	-5,367080  	5012,679925  	75632,481951  	10,969564  	-0,047950  
63,556000  	23,125508  	31,129588  	24,893868  	-242,047242  	79,984561  	69,992667  	0,007463  	0,006335  	0,003963  	0,004274  	0,004175  	0,000000  	-0,000000  	26,430622  	24,689907  	25,702707  	25,605983  	28,705040  	27,505527  	28,962676  	28,637276  	31,508675  	31,057790  	34,344585  	62,744765  	27,044733  	26,390123  	28,058210  	68,642406  	0,228815  	0,115942  	-3880,028983  	-27072,669183  	-0,102892  	-0,050000  	0,165042  	0,083628  	-3,501106  	5011,574894  	75534,389242  	10,955337  	-0,047951  
64,557000  	23,105546  	31,129280  	24,894605  	956,927186  	79,978562  	69,997090  	0,007472  	0,006317  	0,003957  	0,004317  	0,004253  	-0,000001  	-0,000000  	26,417290  	24,690988  	25,697800  	25,602237  	28,697241  	27,494860  	28,955976  	28,631978  	31,500603  	31,053641  	34,345085  	62,739067  	27,043450  	26,388120  	28,053819  	68,637540  	0,263071  	0,133300  	-4471,883892  	22494,065732  	-0,022168  	-0,050015  	0,226834  	0,114939  	-4,806916  	4971,358703  	75736,025823  	10,984582  	-0,047964  
65,555000  	23,038261  	31,133375  	24,894882  	956,927186  	79,974376  	70,000142  	0,007472  	0,006268  	0,003959  	0,004306  	0,004231  	-0,000001  	-0,000000  	26,418607  	24,685357  	25,696781  	25,601698  	28,699268  	27,491683  	28,952749  	28,630429  	31,494794  	31,055141  	34,343533  	62,736227  	27,039677  	26,384824  	28,043729  	68,640042  	0,254560  	0,128987  	-4365,712943  	22491,402596  	-0,022166  	-0,050009  	0,209199  	0,106003  	-4,429994  	4865,814106  	75731,436112  	10,983916  	-0,047959  
66,556000  	23,031075  	31,129742  	24,895374  	357,439972  	79,971439  	70,001264  	0,007466  	0,006331  	0,003961  	0,004266  	0,004244  	0,000001  	-0,000000  	26,427935  	24,689384  	25,699405  	25,601224  	28,702768  	27,496584  	28,957973  	28,635031  	31,497073  	31,056211  	34,340843  	62,734664  	27,040394  	26,392065  	28,044556  	68,639664  	0,221841  	0,112409  	-3806,260989  	12499,513317  	-0,036465  	-0,049993  	0,219481  	0,111213  	-4,645838  	5002,491993  	75600,481076  	10,964923  	-0,047946  
67,555000  	23,052172  	31,125771  	24,895742  	1256,670793  	79,973782  	70,000578  	0,007468  	0,006339  	0,003956  	0,004292  	0,004268  	0,000000  	-0,000000  	26,429578  	24,695774  	25,698413  	25,602076  	28,699387  	27,501272  	28,960238  	28,632580  	31,500625  	31,053462  	34,341643  	62,735763  	27,043575  	26,400316  	28,047191  	68,635522  	0,243256  	0,123259  	-4160,756129  	25536,099308  	-0,018526  	-0,049995  	0,238273  	0,120735  	-5,045128  	5020,668406  	75650,925526  	10,972239  	-0,047947  
68,556000  	23,057331  	31,109764  	24,895865  	1256,670793  	79,982842  	69,981143  	0,007471  	0,006341  	0,003958  	0,004316  	0,004229  	0,000000  	-0,000000  	26,429948  	24,690386  	25,700635  	25,608890  	28,703387  	27,508122  	28,961177  	28,633968  	31,503496  	31,056003  	34,348729  	62,741295  	27,048629  	26,402130  	28,044991  	68,639076  	0,262691  	0,133107  	-4481,402476  	25535,844721  	-0,018526  	-0,049994  	0,207625  	0,105205  	-4,408755  	5024,536014  	75716,798466  	10,981793  	-0,047946  
69,556000  	23,073485  	31,086647  	24,897524  	956,927186  	79,990153  	69,966348  	0,007468  	0,006340  	0,003960  	0,004231  	0,004232  	0,000001  	-0,000000  	26,431455  	24,688240  	25,702450  	25,608520  	28,707072  	27,506341  	28,964914  	28,637488  	31,504778  	31,054451  	34,349668  	62,739579  	27,047918  	26,397244  	28,045163  	68,637121  	0,193440  	0,098017  	-3283,913607  	22480,813842  	-0,022155  	-0,049982  	0,210300  	0,106561  	-4,475416  	5022,144139  	75639,754877  	10,970619  	-0,047936  
70,556000  	23,063535  	31,079936  	24,897279  	357,439972  	79,988903  	69,966660  	0,007469  	0,006331  	0,003958  	0,004263  	0,004227  	0,000000  	-0,000000  	26,432874  	24,688259  	25,688269  	25,602674  	28,699110  	27,502236  	28,956549  	28,631585  	31,503953  	31,047975  	34,339681  	62,737534  	27,042871  	26,383201  	28,041446  	68,625120  	0,219429  	0,111187  	-3726,628395  	12500,301524  	-0,036467  	-0,049997  	0,205829  	0,104295  	-4,379588  	5002,008100  	75660,846363  	10,973678  	-0,047949  
71,555000  	23,029447  	31,083261  	24,896818  	357,439972  	79,983623  	69,965196  	0,007475  	0,006347  	0,003958  	0,004316  	0,004182  	0,000001  	-0,000000  	26,431660  	24,690430  	25,694560  	25,602391  	28,702828  	27,513036  	28,963556  	28,643487  	31,500407  	31,052409  	34,344776  	62,736486  	27,047679  	26,381212  	28,034593  	68,638402  	0,262615  	0,133069  	-4480,887235  	12498,804012  	-0,036463  	-0,049990  	0,170520  	0,086403  	-3,626893  	5037,476619  	75794,703508  	10,993092  	-0,047943  
72,558000  	22,992104  	31,088740  	24,898108  	956,927186  	79,982186  	69,972360  	0,007473  	0,006317  	0,003965  	0,004229  	0,004258  	-0,000000  	-0,000001  	26,434570  	24,689413  	25,700356  	25,610787  	28,710703  	27,516274  	28,962984  	28,640384  	31,505126  	31,058065  	34,357140  	62,740539  	27,052062  	26,367297  	28,037039  	68,639118  	0,191958  	0,097267  	-3292,724324  	22489,330925  	-0,022164  	-0,050004  	0,230309  	0,116699  	-4,894391  	4971,690495  	75764,220769  	10,988671  	-0,047955  
73,555000  	22,980251  	31,096066  	24,897586  	57,696365  	79,987154  	69,986251  	0,007462  	0,006347  	0,003961  	0,004327  	0,004225  	0,000000  	-0,000001  	26,444845  	24,694694  	25,699630  	25,608254  	28,711901  	27,515457  	28,962343  	28,645701  	31,512675  	31,061563  	34,349857  	62,741549  	27,055935  	26,353924  	28,041940  	68,636240  	0,271311  	0,137475  	-4664,910351  	1776,696018  	-0,053849  	-0,049998  	0,204372  	0,103557  	-4,339329  	5036,761391  	75520,217628  	10,953282  	-0,047950  
74,557000  	23,018883  	31,087201  	24,896971  	657,183579  	79,991653  	69,989926  	0,007469  	0,006332  	0,003963  	0,004271  	0,004209  	0,000001  	-0,000000  	26,449205  	24,694261  	25,699183  	25,614077  	28,702739  	27,505563  	28,969008  	28,638709  	31,509590  	31,060127  	34,354423  	62,733686  	27,052834  	26,332281  	28,043184  	68,640030  	0,226165  	0,114600  	-3865,910026  	18455,357427  	-0,027567  	-0,049993  	0,191627  	0,097099  	-4,069055  	5004,680831  	75665,591417  	10,974366  	-0,047945  
75,555000  	23,054905  	31,072426  	24,896971  	-242,047242  	79,991340  	69,992729  	0,007471  	0,006334  	0,003960  	0,004257  	0,004257  	-0,000000  	-0,000000  	26,426879  	24,690726  	25,696180  	25,611517  	28,709481  	27,508581  	28,967720  	28,632597  	31,511087  	31,054745  	34,355467  	62,736432  	27,048830  	26,321915  	28,033001  	68,639199  	0,215232  	0,109060  	-3655,849716  	-27073,046888  	-0,102892  	-0,050000  	0,229517  	0,116298  	-4,872115  	5008,557636  	75718,810878  	10,982085  	-0,047952  
76,555000  	23,084141  	31,054818  	24,896357  	-242,047242  	79,992465  	69,988618  	0,007464  	0,006341  	0,003958  	0,004291  	0,004229  	0,000000  	-0,000000  	26,429275  	24,701690  	25,706722  	25,618500  	28,722586  	27,506778  	28,970258  	28,644967  	31,508201  	31,064573  	34,350815  	62,742166  	27,061035  	26,312253  	28,046151  	68,646071  	0,242366  	0,122809  	-4092,681534  	-27070,331929  	-0,102882  	-0,049995  	0,207573  	0,105179  	-4,408598  	5023,421079  	75564,603661  	10,959719  	-0,047947  
77,554000  	23,111903  	31,052017  	24,896234  	1256,670793  	79,994402  	69,989708  	0,007464  	0,006338  	0,003957  	0,004305  	0,004231  	-0,000000  	-0,000000  	26,435670  	24,690414  	25,702456  	25,617572  	28,708955  	27,497997  	28,966839  	28,632355  	31,508150  	31,060173  	34,354655  	62,735349  	27,049845  	26,292237  	28,045111  	68,636658  	0,253443  	0,128422  	-4263,321102  	25540,055630  	-0,018529  	-0,050003  	0,209233  	0,106020  	-4,444222  	5016,877910  	75562,513577  	10,959416  	-0,047954  
78,557000  	23,116571  	31,061252  	24,895804  	657,183579  	79,992652  	69,991141  	0,007477  	0,006342  	0,003960  	0,004305  	0,004225  	-0,000001  	-0,000000  	26,430694  	24,699161  	25,694782  	25,608570  	28,709688  	27,504955  	28,965184  	28,637281  	31,504920  	31,063987  	34,348447  	62,737656  	27,053318  	26,302789  	28,027825  	68,640680  	0,253849  	0,128627  	-4272,600036  	18461,159699  	-0,027575  	-0,050010  	0,204251  	0,103496  	-4,337037  	5026,697262  	75838,771792  	10,999484  	-0,047960  
79,555000  	23,126153  	31,078982  	24,896633  	657,183579  	79,991809  	69,994847  	0,007465  	0,006338  	0,003957  	0,004321  	0,004202  	-0,000001  	-0,000000  	26,435683  	24,708081  	25,691809  	25,611820  	28,705343  	27,502806  	28,965565  	28,630178  	31,506547  	31,048414  	34,354429  	62,734329  	27,048752  	26,276334  	28,034073  	68,634897  	0,267062  	0,135322  	-4499,602941  	18460,548614  	-0,027574  	-0,050009  	0,186480  	0,094491  	-3,957883  	5016,519235  	75573,112278  	10,960953  	-0,047959  
80,559000  	23,119888  	31,093511  	24,895158  	57,696365  	79,991184  	69,998273  	0,007469  	0,006329  	0,003964  	0,004245  	0,004239  	0,000001  	-0,000000  	26,435040  	24,686395  	25,710691  	25,609902  	28,707402  	27,505698  	28,967130  	28,642388  	31,504199  	31,061697  	34,349587  	62,740127  	27,058241  	26,275435  	28,045982  	68,650357  	0,205072  	0,103911  	-3464,193031  	1776,677502  	-0,053845  	-0,049993  	0,215693  	0,109293  	-4,576059  	4998,482895  	75672,468922  	10,975364  	-0,047946  
81,554000  	23,131742  	31,111796  	24,894237  	57,696365  	79,992090  	70,004378  	0,007468  	0,006339  	0,003957  	0,004323  	0,004307  	-0,000001  	-0,000000  	26,436308  	24,686788  	25,698775  	25,604753  	28,707298  	27,509440  	28,973349  	28,643764  	31,511926  	31,063116  	34,349489  	62,736552  	27,054082  	26,262785  	28,044467  	68,642453  	0,268281  	0,135940  	-4535,607552  	1777,239870  	-0,053860  	-0,050009  	0,269302  	0,136457  	-5,710433  	5018,957094  	75656,856845  	10,973099  	-0,047959  
82,556000  	23,124126  	31,120046  	24,894913  	1256,670793  	79,989778  	70,014158  	0,007474  	0,006338  	0,003959  	0,004308  	0,004210  	-0,000000  	-0,000001  	26,442758  	24,693046  	25,713682  	25,619717  	28,713134  	27,519124  	28,965647  	28,646456  	31,513804  	31,063380  	34,350334  	62,745919  	27,058579  	26,252394  	28,049182  	68,644892  	0,256040  	0,129737  	-4337,269947  	25538,783721  	-0,018528  	-0,050000  	0,192659  	0,097622  	-4,080316  	5016,648697  	75777,488563  	10,990596  	-0,047952  
83,555000  	23,097224  	31,125217  	24,894452  	357,439972  	79,984811  	70,013691  	0,007466  	0,006340  	0,003958  	0,004250  	0,004235  	0,000002  	-0,000000  	26,432355  	24,690351  	25,696676  	25,609790  	28,697692  	27,503541  	28,962163  	28,636944  	31,503355  	31,052789  	34,344431  	62,739834  	27,050094  	26,240032  	28,041477  	68,639058  	0,209273  	0,106040  	-3559,272148  	12495,062700  	-0,036452  	-0,049973  	0,212094  	0,107470  	-4,489899  	5021,578182  	75612,047147  	10,966600  	-0,047928  
84,557000  	23,075113  	31,131251  	24,894083  	956,927186  	79,982624  	70,006091  	0,007470  	0,006336  	0,003959  	0,004358  	0,004219  	0,000002  	-0,000000  	26,422028  	24,687575  	25,691288  	25,602447  	28,699859  	27,501545  	28,959434  	28,629842  	31,498693  	31,048492  	34,340691  	62,731753  	27,038740  	26,217426  	28,034328  	68,632279  	0,296800  	0,150391  	-5065,613428  	22479,759538  	-0,022154  	-0,049980  	0,199755  	0,101217  	-4,230983  	5013,335020  	75692,247045  	10,978232  	-0,047934  
85,556000  	23,045324  	31,128880  	24,894482  	57,696365  	79,980905  	70,010140  	0,007475  	0,006337  	0,003961  	0,004254  	0,004231  	0,000001  	-0,000000  	26,425720  	24,698406  	25,696519  	25,614032  	28,698786  	27,503033  	28,963540  	28,639601  	31,502447  	31,057394  	34,350187  	62,743443  	27,052676  	26,216398  	28,033881  	68,638605  	0,212221  	0,107534  	-3634,395036  	1776,676638  	-0,053844  	-0,049992  	0,209079  	0,105942  	-4,425903  	5016,066469  	75802,378917  	10,994206  	-0,047945  
86,556000  	23,017992  	31,116690  	24,893253  	657,183579  	79,979843  	70,004222  	0,007468  	0,006338  	0,003957  	0,004236  	0,004236  	0,000000  	-0,000000  	26,429032  	24,688047  	25,690560  	25,601212  	28,697423  	27,497947  	28,958406  	28,632886  	31,506039  	31,046897  	34,344538  	62,739624  	27,038313  	26,195001  	28,033553  	68,636082  	0,197948  	0,100301  	-3396,317702  	18456,400829  	-0,027568  	-0,049996  	0,213392  	0,108127  	-4,519409  	5017,719771  	75645,142491  	10,971400  	-0,047948  
87,556000  	22,990815  	31,107825  	24,892055  	-242,047242  	79,981343  	70,003101  	0,007469  	0,006339  	0,003960  	0,004300  	0,004235  	0,000001  	-0,000000  	26,431827  	24,688290  	25,698883  	25,607397  	28,704895  	27,503197  	28,964604  	28,637095  	31,510062  	31,055269  	34,341145  	62,744171  	27,043921  	26,178080  	28,039928  	68,644554  	0,249924  	0,126638  	-4297,811251  	-27068,900409  	-0,102878  	-0,049992  	0,212741  	0,107797  	-4,506795  	5020,337322  	75664,518131  	10,974211  	-0,047945  
88,555000  	22,994500  	31,102038  	24,892485  	-242,047242  	79,986341  	70,006154  	0,007467  	0,006344  	0,003963  	0,004296  	0,004241  	0,000000  	-0,000000  	26,429949  	24,688033  	25,704645  	25,608365  	28,715863  	27,502278  	28,972291  	28,644018  	31,515499  	31,060929  	34,347249  	62,744562  	27,050805  	26,163146  	28,043714  	68,641075  	0,246701  	0,125005  	-4237,436292  	-27072,075441  	-0,102890  	-0,049999  	0,217083  	0,109998  	-4,599689  	5031,481013  	75621,826761  	10,968019  	-0,047950  
89,558000  	23,012772  	31,091941  	24,891195  	1256,670793  	79,984186  	70,008427  	0,007473  	0,006335  	0,003959  	0,004288  	0,004241  	0,000001  	-0,000000  	26,423339  	24,690826  	25,694342  	25,604948  	28,711823  	27,504373  	28,967544  	28,642542  	31,509021  	31,054145  	34,348976  	62,730192  	27,046438  	26,149098  	28,033693  	68,639273  	0,239925  	0,121572  	-4106,622183  	25533,334807  	-0,018524  	-0,049988  	0,217345  	0,110130  	-4,603195  	5010,424586  	75764,453785  	10,988705  	-0,047941  
90,557000  	23,020142  	31,079198  	24,890888  	1256,670793  	79,979374  	70,013660  	0,007468  	0,006335  	0,003961  	0,004289  	0,004247  	0,000001  	-0,000000  	26,431979  	24,696711  	25,704228  	25,613600  	28,708956  	27,511365  	28,968534  	28,639382  	31,510802  	31,062624  	34,350976  	62,735561  	27,054419  	26,136865  	28,035963  	68,646658  	0,240844  	0,122037  	-4112,091155  	25530,825619  	-0,018522  	-0,049983  	0,221755  	0,112365  	-4,691867  	5011,029453  	75649,831057  	10,972080  	-0,047937  
91,559000  	23,020695  	31,066084  	24,889689  	1256,670793  	79,976188  	69,999208  	0,007471  	0,006338  	0,003962  	0,004229  	0,004212  	0,000001  	-0,000000  	26,436650  	24,690804  	25,709395  	25,615097  	28,707544  	27,509276  	28,968617  	28,645297  	31,510347  	31,061554  	34,350238  	62,739142  	27,058759  	26,120683  	28,039139  	68,643616  	0,192151  	0,097364  	-3275,156071  	25534,041904  	-0,018525  	-0,049990  	0,194130  	0,098367  	-4,112027  	5017,782026  	75706,115032  	10,980244  	-0,047943  
92,555000  	23,033224  	31,062822  	24,889566  	1256,670793  	79,976188  	69,994038  	0,007474  	0,006313  	0,003956  	0,004280  	0,004215  	0,000000  	-0,000000  	26,430598  	24,683192  	25,699233  	25,612237  	28,700058  	27,505440  	28,965337  	28,642887  	31,505302  	31,053205  	34,355180  	62,734734  	27,050917  	26,104540  	28,035390  	68,639106  	0,233392  	0,118262  	-3970,297832  	25537,075599  	-0,018527  	-0,049996  	0,196552  	0,099595  	-4,165483  	4962,923115  	75770,201515  	10,989539  	-0,047948  
93,596000  	23,041332  	31,057927  	24,887692  	57,696365  	79,974501  	69,987061  	0,007465  	0,006344  	0,003962  	0,004268  	0,004261  	-0,000001  	-0,000000  	26,429892  	24,677381  	25,693871  	25,610342  	28,699593  	27,506593  	28,965321  	28,634220  	31,504893  	31,057502  	34,356192  	62,736192  	27,048160  	26,095477  	28,037613  	68,641055  	0,224089  	0,113548  	-3805,867935  	1777,756939  	-0,053865  	-0,050014  	0,232978  	0,118052  	-4,940060  	5029,957174  	75579,749706  	10,961916  	-0,047963  
94,556000  	23,058959  	31,057927  	24,887692  	1256,670793  	79,971439  	69,981953  	0,007464  	0,006330  	0,003961  	0,004271  	0,004208  	-0,000000  	-0,000000  	26,429513  	24,681321  	25,693476  	25,606664  	28,703741  	27,506675  	28,965385  	28,634874  	31,500410  	31,061402  	34,348922  	62,737314  	27,053106  	26,088353  	28,037917  	68,644324  	0,226278  	0,114657  	-3834,584622  	25540,338124  	-0,018529  	-0,050003  	0,190899  	0,096730  	-4,048645  	5000,136197  	75551,512394  	10,957820  	-0,047954  
95,556000  	23,062829  	31,057004  	24,887323  	1256,670793  	79,972439  	69,989054  	0,007472  	0,006277  	0,003959  	0,004293  	0,004232  	-0,000001  	-0,000000  	26,430494  	24,695233  	25,699527  	25,607570  	28,701280  	27,505971  	28,963468  	28,634923  	31,499414  	31,060515  	34,350120  	62,743951  	27,053787  	26,079273  	28,036693  	68,648399  	0,243896  	0,123584  	-4130,665882  	25543,690250  	-0,018532  	-0,050011  	0,210194  	0,106507  	-4,455132  	4886,674570  	75741,695881  	10,985404  	-0,047961  
96,555000  	23,076034  	31,059097  	24,886217  	1256,670793  	79,976125  	69,997152  	0,007468  	0,006330  	0,003959  	0,004284  	0,004264  	-0,000001  	-0,000000  	26,433051  	24,687015  	25,698830  	25,602742  	28,697202  	27,501529  	28,956974  	28,632095  	31,503782  	31,051529  	34,345075  	62,743667  	27,044876  	26,071977  	28,038536  	68,641668  	0,236382  	0,119777  	-3997,845268  	25545,785201  	-0,018533  	-0,050015  	0,235470  	0,119314  	-4,988665  	4999,476150  	75653,220382  	10,972572  	-0,047964  
97,557000  	23,056963  	31,063530  	24,884435  	-242,047242  	79,981780  	69,991951  	0,007462  	0,006317  	0,003957  	0,004225  	0,004200  	0,000001  	-0,000000  	26,425098  	24,684531  	25,695092  	25,601927  	28,696232  	27,496217  	28,959280  	28,628165  	31,503512  	31,046213  	34,343841  	62,734941  	27,043597  	26,068319  	28,034314  	68,637522  	0,188689  	0,095610  	-3200,619227  	-27065,322296  	-0,102868  	-0,049985  	0,184615  	0,093546  	-3,915502  	4972,598149  	75510,113204  	10,951816  	-0,047939  
98,555000  	23,044802  	31,070856  	24,885173  	-242,047242  	79,982030  	69,985971  	0,007469  	0,006334  	0,003957  	0,004321  	0,004240  	0,000002  	-0,000000  	26,428446  	24,692979  	25,706183  	25,607099  	28,709057  	27,503538  	28,969955  	28,636687  	31,508546  	31,060606  	34,347924  	62,743412  	27,050305  	26,074259  	28,037152  	68,649043  	0,266326  	0,134949  	-4528,538618  	-27062,510542  	-0,102857  	-0,049979  	0,216211  	0,109556  	-4,588491  	5009,360587  	75661,608961  	10,973789  	-0,047934  
99,560000  	23,076494  	31,069655  	24,884620  	657,183579  	79,982467  	69,962455  	0,007477  	0,006341  	0,003958  	0,004267  	0,004211  	-0,000000  	-0,000000  	26,433784  	24,691828  	25,701640  	25,607406  	28,707056  	27,512644  	28,974793  	28,637638  	31,506238  	31,065352  	34,353465  	62,741231  	27,056713  	26,078322  	28,037933  	68,656026  	0,223303  	0,113149  	-3781,411954  	18459,252328  	-0,027572  	-0,050003  	0,193523  	0,098059  	-4,116811  	5023,904265  	75848,600834  	11,000909  	-0,047954  
100,556000  	23,106836  	31,069901  	24,883882  	57,696365  	79,985779  	69,954046  	0,007465  	0,006318  	0,003956  	0,004253  	0,004217  	0,000001  	-0,000000  	26,433555  	24,696804  	25,704273  	25,608231  	28,706371  	27,514293  	28,972505  	28,640483  	31,507756  	31,056669  	34,351746  	62,739474  	27,054136  	26,080461  	28,056260  	68,651836  	0,211805  	0,107323  	-3573,188496  	1777,063900  	-0,053838  	-0,049985  	0,197845  	0,100250  	-4,213683  	4973,674882  	75580,646465  	10,962046  	-0,047939  
101,559000  	23,123911  	31,067254  	24,883544  	1256,670793  	79,985092  	69,964916  	0,007462  	0,006247  	0,003958  	0,004299  	0,004260  	-0,000000  	-0,000000  	26,436456  	24,694117  	25,700780  	25,615555  	28,705867  	27,503495  	28,966934  	28,630187  	31,503650  	31,056744  	34,355496  	62,739277  	27,053850  	26,083356  	28,049379  	68,648040  	0,249261  	0,126303  	-4194,674608  	25540,180830  	-0,018529  	-0,050003  	0,232253  	0,117684  	-4,940808  	4820,918159  	75523,522220  	10,953761  	-0,047954  
102,556000  	23,144241  	31,074211  	24,883913  	1256,670793  	79,977781  	69,980863  	0,007476  	0,006305  	0,003962  	0,004327  	0,004150  	-0,000001  	-0,000000  	26,430910  	24,688765  	25,701596  	25,595661  	28,707619  	27,503275  	28,957834  	28,636610  	31,506662  	31,066271  	34,353293  	62,746426  	27,048538  	26,096214  	28,048083  	68,639972  	0,271657  	0,137651  	-4563,862968  	25544,586305  	-0,018532  	-0,050012  	0,145402  	0,073676  	-3,086024  	4945,889934  	75823,541014  	10,997275  	-0,047962  
103,555000  	23,169578  	31,089725  	24,883360  	1256,670793  	79,971751  	69,990113  	0,007473  	0,006330  	0,003961  	0,004237  	0,004275  	-0,000000  	-0,000000  	26,422055  	24,679812  	25,696824  	25,599925  	28,706216  	27,504001  	28,954571  	28,635630  	31,499917  	31,057276  	34,344224  	62,743056  	27,052823  	26,090908  	28,052032  	68,638004  	0,199010  	0,100840  	-3339,233621  	25539,451815  	-0,018528  	-0,050001  	0,243911  	0,123591  	-5,168865  	5000,002490  	75761,452820  	10,988270  	-0,047952  
104,556000  	23,167858  	31,101730  	24,882991  	1256,670793  	79,976000  	69,970740  	0,007470  	0,006335  	0,003963  	0,004317  	0,004232  	0,000002  	-0,000000  	26,430478  	24,686256  	25,699122  	25,600231  	28,697696  	27,503359  	28,964739  	28,632184  	31,514967  	31,058902  	34,336127  	62,748892  	27,046438  	26,098453  	28,047861  	68,632870  	0,263774  	0,133656  	-4433,594407  	25527,578593  	-0,018520  	-0,049975  	0,209808  	0,106311  	-4,456689  	5010,863203  	75683,159417  	10,976914  	-0,047930  
105,557000  	23,132817  	31,118199  	24,884343  	1256,670793  	79,983623  	69,957005  	0,007468  	0,006329  	0,003961  	0,004267  	0,004232  	-0,000001  	-0,000000  	26,425818  	24,681127  	25,691080  	25,608095  	28,689216  	27,499854  	28,961928  	28,629681  	31,499862  	31,052964  	34,344024  	62,732421  	27,040116  	26,095352  	28,042006  	68,626498  	0,222825  	0,112907  	-3769,641125  	25543,768171  	-0,018532  	-0,050011  	0,209814  	0,106315  	-4,466326  	4997,547652  	75640,355070  	10,970706  	-0,047961  
106,565000  	23,145961  	31,125340  	24,883606  	657,183579  	79,982686  	69,962735  	0,007470  	0,006335  	0,003961  	0,004275  	0,004227  	0,000002  	-0,000000  	26,424380  	24,673263  	25,705019  	25,609199  	28,697820  	27,496429  	28,964685  	28,624603  	31,507122  	31,058906  	34,342743  	62,740636  	27,040374  	26,099591  	28,046900  	68,631907  	0,229579  	0,116329  	-3880,966459  	18450,935241  	-0,027560  	-0,049978  	0,206007  	0,104385  	-4,382358  	5010,178395  	75696,603739  	10,978864  	-0,047932  
107,555000  	23,155359  	31,132359  	24,884251  	657,183579  	79,976875  	69,968093  	0,007457  	0,006319  	0,003961  	0,004258  	0,004233  	-0,000000  	-0,000000  	26,426993  	24,677736  	25,692568  	25,611058  	28,699352  	27,495570  	28,959433  	28,631910  	31,504377  	31,053784  	34,347186  	62,740231  	27,037075  	26,089248  	28,046760  	68,632622  	0,215309  	0,109099  	-3638,660339  	18460,030359  	-0,027573  	-0,050005  	0,210671  	0,106749  	-4,476597  	4975,831177  	75417,768225  	10,938422  	-0,047956  
108,555000  	23,142337  	31,137653  	24,885173  	57,696365  	79,973376  	69,966847  	0,007470  	0,006334  	0,003958  	0,004291  	0,004167  	0,000001  	-0,000000  	26,424912  	24,680505  	25,701361  	25,601263  	28,705509  	27,499676  	28,964140  	28,635787  	31,504503  	31,057946  	34,344661  	62,736714  	27,043373  	26,083975  	28,040558  	68,629809  	0,242027  	0,122637  	-4099,583956  	1777,122131  	-0,053842  	-0,049989  	0,158766  	0,080448  	-3,372887  	5009,436284  	75687,953900  	10,977610  	-0,047942  
109,558000  	23,146330  	31,138854  	24,884189  	57,696365  	79,972345  	69,983012  	0,007476  	0,006331  	0,003958  	0,004266  	0,004232  	-0,000001  	-0,000000  	26,418037  	24,688985  	25,689064  	25,602906  	28,690212  	27,499684  	28,956179  	28,634198  	31,501955  	31,057324  	34,341657  	62,739902  	27,047061  	26,075528  	28,034003  	68,632885  	0,222272  	0,112627  	-3763,647894  	1777,790466  	-0,053861  	-0,050009  	0,209940  	0,106378  	-4,452401  	5002,643386  	75812,857579  	10,995725  	-0,047959  
110,557000  	23,141723  	31,149628  	24,885541  	1256,670793  	79,968096  	69,986375  	0,007467  	0,006339  	0,003961  	0,004278  	0,004206  	-0,000001  	-0,000000  	26,427527  	24,688375  	25,702341  	25,603865  	28,701318  	27,509753  	28,961748  	28,642290  	31,508814  	31,052701  	34,349156  	62,743239  	27,057117  	26,073427  	28,038199  	68,641375  	0,231860  	0,117485  	-3933,550117  	25542,418311  	-0,018531  	-0,050008  	0,189161  	0,095849  	-4,008669  	5019,155179  	75622,737642  	10,968151  	-0,047958  
111,558000  	23,099159  	31,147781  	24,886187  	1256,670793  	79,961442  	69,988525  	0,007473  	0,006334  	0,003959  	0,004310  	0,004267  	-0,000000  	-0,000000  	26,432855  	24,681715  	25,697530  	25,606218  	28,703444  	27,514238  	28,960078  	28,638099  	31,506973  	31,056115  	34,343556  	62,740536  	27,055696  	26,071396  	28,046733  	68,639804  	0,257654  	0,130555  	-4393,390348  	25540,985392  	-0,018530  	-0,050005  	0,237771  	0,120480  	-5,034360  	5009,378981  	75752,456987  	10,986965  	-0,047955  
112,556000  	23,058437  	31,143656  	24,885756  	57,696365  	79,958192  	69,998928  	0,007466  	0,006327  	0,003962  	0,004244  	0,004289  	-0,000000  	-0,000000  	26,424078  	24,680288  	25,692211  	25,600401  	28,700623  	27,503261  	28,960477  	28,637374  	31,499153  	31,050879  	34,338932  	62,730028  	27,048443  	26,071380  	28,038493  	68,624100  	0,204016  	0,103376  	-3494,596601  	1777,483977  	-0,053854  	-0,050002  	0,254981  	0,129201  	-5,391363  	4993,896522  	75615,916626  	10,967161  	-0,047953  
113,558000  	23,055642  	31,139285  	24,887139  	956,927186  	79,960504  	70,001575  	0,007467  	0,006330  	0,003956  	0,004272  	0,004230  	0,000001  	-0,000001  	26,429363  	24,683718  	25,701461  	25,607163  	28,704910  	27,501039  	28,961623  	28,641045  	31,500824  	31,052550  	34,352795  	62,736072  	27,045265  	26,093813  	28,038271  	68,637111  	0,226987  	0,115016  	-3887,325334  	22484,258485  	-0,022159  	-0,049990  	0,208625  	0,105712  	-4,411054  	5000,130537  	75628,337089  	10,968963  	-0,047943  
114,582000  	23,065162  	31,127403  	24,888184  	-242,047242  	79,965253  	69,994972  	0,007465  	0,006343  	0,003959  	0,004258  	0,004242  	0,000001  	-0,000000  	26,427785  	24,681325  	25,693558  	25,602504  	28,698941  	27,498947  	28,951371  	28,636474  	31,502354  	31,056576  	34,342027  	62,730750  	27,039137  	26,105745  	28,037154  	68,633015  	0,215604  	0,109248  	-3682,591853  	-27065,525046  	-0,102867  	-0,049985  	0,217927  	0,110425  	-4,612969  	5027,920437  	75583,400291  	10,962445  	-0,047939  
115,556000  	23,085892  	31,116229  	24,888368  	657,183579  	79,970439  	69,980271  	0,007470  	0,006333  	0,003961  	0,004216  	0,004248  	0,000002  	-0,000000  	26,432178  	24,680714  	25,690612  	25,599143  	28,700747  	27,500685  	28,954623  	28,637949  	31,502835  	31,053232  	34,339501  	62,729510  	27,035516  	26,107153  	28,036351  	68,620010  	0,181950  	0,092195  	-3095,467649  	18450,903124  	-0,027560  	-0,049978  	0,222995  	0,112993  	-4,729659  	5007,519105  	75686,110954  	10,977342  	-0,047933  
116,557000  	23,128518  	31,114259  	24,889413  	57,696365  	79,975875  	69,986625  	0,007475  	0,006332  	0,003958  	0,004335  	0,004203  	0,000000  	-0,000000  	26,437433  	24,685018  	25,699770  	25,605094  	28,707067  	27,510390  	28,964738  	28,643294  	31,507469  	31,055281  	34,347546  	62,741956  	27,039657  	26,115298  	28,042734  	68,624341  	0,277895  	0,140811  	-4701,494296  	1777,089037  	-0,053848  	-0,049996  	0,186780  	0,094643  	-3,961188  	5005,151990  	75792,634608  	10,992792  	-0,047948  
117,559000  	23,173969  	31,101330  	24,890212  	956,927186  	79,980374  	69,986189  	0,007466  	0,006334  	0,003960  	0,004313  	0,004246  	0,000000  	-0,000000  	26,433804  	24,688258  	25,700826  	25,605531  	28,702529  	27,509204  	28,961521  	28,639694  	31,503585  	31,055799  	34,350662  	62,736500  	27,041174  	26,112503  	28,033402  	68,626542  	0,260055  	0,131772  	-4367,486817  	22485,741320  	-0,022160  	-0,049994  	0,221038  	0,112002  	-4,690046  	5008,170663  	75600,325732  	10,964900  	-0,047946  
118,554000  	23,169301  	31,100345  	24,891195  	357,439972  	79,986560  	69,988680  	0,007471  	0,006334  	0,003964  	0,004252  	0,004252  	-0,000001  	-0,000000  	26,429735  	24,693596  	25,700246  	25,608050  	28,702062  	27,507348  	28,958014  	28,638233  	31,501248  	31,061827  	34,353038  	62,734526  	27,040583  	26,105054  	28,031929  	68,629406  	0,210671  	0,106748  	-3539,757260  	12502,728491  	-0,036474  	-0,050007  	0,226142  	0,114588  	-4,800107  	5008,469913  	75708,946530  	10,980654  	-0,047957  
119,557000  	23,135213  	31,110411  	24,891932  	1256,670793  	79,993340  	70,006963  	0,007470  	0,006333  	0,003961  	0,004322  	0,004229  	0,000002  	-0,000001  	26,427227  	24,695828  	25,703458  	25,613918  	28,709558  	27,513605  	28,964805  	28,644728  	31,513016  	31,067059  	34,355294  	62,744433  	27,042054  	26,104932  	28,043592  	68,634723  	0,267322  	0,135454  	-4516,641972  	25528,962725  	-0,018521  	-0,049979  	0,207567  	0,105176  	-4,400778  	5005,748367  	75682,432125  	10,976809  	-0,047933  
120,554000  	23,069984  	31,129927  	24,892424  	57,696365  	79,997964  	70,011012  	0,007472  	0,006335  	0,003963  	0,004273  	0,004220  	0,000000  	-0,000000  	26,436241  	24,699873  	25,704703  	25,618537  	28,717971  	27,520162  	28,970764  	28,648323  	31,516620  	31,063674  	34,356596  	62,741387  	27,044028  	26,102539  	28,044349  	68,631645  	0,228202  	0,115631  	-3896,657058  	1776,909889  	-0,053848  	-0,049996  	0,200646  	0,101669  	-4,254296  	5011,604606  	75733,956923  	10,984282  	-0,047948  
121,558000  	23,022476  	31,146026  	24,893960  	956,927186  	80,000150  	70,001201  	0,007468  	0,006332  	0,003963  	0,004289  	0,004267  	0,000000  	-0,000001  	26,444585  	24,703606  	25,700686  	25,620440  	28,720116  	27,522394  	28,973131  	28,642993  	31,505445  	31,062182  	34,355097  	62,736123  	27,039756  	26,091350  	28,042041  	68,627357  	0,240862  	0,122047  	-4145,314092  	22487,434787  	-0,022162  	-0,049999  	0,237872  	0,120532  	-5,049650  	5005,654277  	75640,955263  	10,970793  	-0,047950  
122,554000  	23,046368  	31,144733  	24,894636  	-242,047242  	80,004399  	69,999332  	0,007466  	0,006340  	0,003960  	0,004271  	0,004211  	0,000001  	-0,000000  	26,434041  	24,693046  	25,695435  	25,615484  	28,711938  	27,518488  	28,975187  	28,639817  	31,504551  	31,057398  	34,352604  	62,735759  	27,031057  	26,076524  	28,037914  	68,626062  	0,226253  	0,114644  	-3881,813406  	-27064,374368  	-0,102860  	-0,049983  	0,193244  	0,097918  	-4,104766  	5021,460039  	75599,640806  	10,964801  	-0,047936  
123,556000  	23,068111  	31,130419  	24,895466  	657,183579  	80,004149  	70,002883  	0,007469  	0,006335  	0,003960  	0,004241  	0,004231  	-0,000000  	-0,000001  	26,446269  	24,700098  	25,706783  	25,625790  	28,718592  	27,527722  	28,973929  	28,653404  	31,514406  	31,065707  	34,357718  	62,742837  	27,038905  	26,077162  	28,047263  	68,635672  	0,202168  	0,102440  	-3453,130951  	18458,309919  	-0,027571  	-0,050002  	0,209151  	0,105978  	-4,440976  	5010,627623  	75661,637205  	10,973793  	-0,047953  
124,554000  	23,074805  	31,110719  	24,895712  	57,696365  	79,999026  	69,998273  	0,007468  	0,006333  	0,003959  	0,004255  	0,004238  	0,000000  	-0,000000  	26,449205  	24,699384  	25,707828  	25,627665  	28,714780  	27,523917  	28,974211  	28,656102  	31,516766  	31,060417  	34,356506  	62,739012  	27,039507  	26,063110  	28,047534  	68,632497  	0,213422  	0,108142  	-3633,420779  	1776,788277  	-0,053849  	-0,049998  	0,214988  	0,108936  	-4,564677  	5006,503212  	75647,529141  	10,971746  	-0,047949  
125,557000  	23,081777  	31,098221  	24,897156  	57,696365  	79,989903  	70,003973  	0,007467  	0,006321  	0,003958  	0,004335  	0,004250  	-0,000001  	-0,000000  	26,441285  	24,695742  	25,712547  	25,626428  	28,714852  	27,521610  	28,973681  	28,658399  	31,513326  	31,061021  	34,351753  	62,738342  	27,037079  	26,043508  	28,042605  	68,628963  	0,278078  	0,140904  	-4722,689322  	1776,987599  	-0,053858  	-0,050007  	0,224396  	0,113703  	-4,757362  	4980,153673  	75618,967018  	10,967604  	-0,047957  
126,554000  	23,078951  	31,093727  	24,896971  	1256,670793  	79,982217  	70,006278  	0,007476  	0,006333  	0,003961  	0,004251  	0,004227  	-0,000000  	-0,000000  	26,431159  	24,693205  	25,704396  	25,611342  	28,709850  	27,503211  	28,970382  	28,643797  	31,498360  	31,060433  	34,349915  	62,736826  	27,026756  	26,034687  	28,035677  	68,627019  	0,210201  	0,106510  	-3569,164624  	25539,500597  	-0,018529  	-0,050002  	0,205819  	0,104290  	-4,359159  	5007,738413  	75818,287560  	10,996513  	-0,047953  
127,555000  	23,065500  	31,095481  	24,897340  	357,439972  	79,978531  	70,010576  	0,007463  	0,006344  	0,003962  	0,004256  	0,004269  	-0,000001  	-0,000000  	26,433735  	24,700435  	25,705220  	25,612858  	28,710120  	27,514758  	28,975764  	28,648702  	31,512962  	31,061887  	34,355935  	62,732639  	27,026629  	26,046948  	28,039774  	68,627514  	0,213777  	0,108322  	-3636,774622  	12502,660280  	-0,036474  	-0,050008  	0,238931  	0,121068  	-5,056415  	5030,342732  	75531,451828  	10,954911  	-0,047958  
128,554000  	23,066729  	31,099791  	24,898262  	956,927186  	79,976719  	70,012507  	0,007467  	0,006336  	0,003956  	0,004286  	0,004218  	-0,000000  	-0,000000  	26,434231  	24,697998  	25,719035  	25,628998  	28,719520  	27,523685  	28,982160  	28,652493  	31,524391  	31,073412  	34,365097  	62,746056  	27,032540  	26,058358  	28,045734  	68,644205  	0,238044  	0,120619  	-4051,173034  	22488,730792  	-0,022163  	-0,050002  	0,198923  	0,100796  	-4,208150  	5013,755950  	75628,386517  	10,968970  	-0,047953  
129,557000  	23,071704  	31,098867  	24,898907  	-242,047242  	79,979062  	70,015030  	0,007473  	0,006330  	0,003960  	0,004204  	0,004259  	0,000002  	-0,000000  	26,445296  	24,707723  	25,715667  	25,626838  	28,712778  	27,526768  	28,986341  	28,661804  	31,517850  	31,072308  	34,368885  	62,746003  	27,031574  	26,071843  	28,047382  	68,652821  	0,172158  	0,087234  	-2927,736047  	-27062,807640  	-0,102853  	-0,049979  	0,231573  	0,117340  	-4,898773  	5000,919340  	75754,405849  	10,987248  	-0,047934  
130,554000  	23,037247  	31,100837  	24,899644  	357,439972  	79,979312  	70,016837  	0,007473  	0,006340  	0,003958  	0,004277  	0,004252  	0,000001  	-0,000001  	26,436805  	24,692132  	25,709544  	25,624255  	28,716823  	27,514972  	28,970591  	28,645106  	31,516162  	31,064455  	34,354884  	62,726030  	27,034936  	26,081181  	28,042350  	68,638252  	0,231007  	0,117053  	-3946,347818  	12496,821843  	-0,036458  	-0,049982  	0,226022  	0,114527  	-4,780606  	5021,849841  	75766,219058  	10,988961  	-0,047936  
131,556000  	23,039735  	31,105917  	24,900382  	1256,670793  	79,973938  	69,999364  	0,007461  	0,006341  	0,003960  	0,004231  	0,004219  	0,000001  	-0,000000  	26,434246  	24,706411  	25,700077  	25,615939  	28,697957  	27,509884  	28,963672  	28,634285  	31,511331  	31,058475  	34,366986  	62,734088  	27,025022  	26,094991  	28,044406  	68,634879  	0,193851  	0,098226  	-3312,672791  	25534,639822  	-0,018525  	-0,049992  	0,199691  	0,101185  	-4,228785  	5023,116878  	75505,184560  	10,951101  	-0,047944  
132,554000  	23,085308  	31,102038  	24,900136  	1256,670793  	79,970502  	69,997806  	0,007467  	0,006335  	0,003956  	0,004241  	0,004206  	0,000001  	-0,000000  	26,444414  	24,690459  	25,702683  	25,622751  	28,713355  	27,513857  	28,973374  	28,652111  	31,511723  	31,066573  	34,362365  	62,734937  	27,027662  	26,106481  	28,035341  	68,631428  	0,201506  	0,102104  	-3422,360757  	25532,188518  	-0,018523  	-0,049986  	0,189350  	0,095945  	-4,009055  	5011,167405  	75637,481205  	10,970289  	-0,047940  
133,558000  	23,088871  	31,092588  	24,902471  	-242,047242  	79,966815  	69,995034  	0,007470  	0,006335  	0,003961  	0,004256  	0,004214  	0,000000  	-0,000001  	26,449334  	24,707459  	25,711885  	25,625978  	28,709954  	27,521478  	28,971077  	28,652194  	31,520150  	31,067518  	34,365816  	62,735451  	27,032076  	26,118051  	28,045188  	68,642885  	0,213919  	0,108394  	-3627,288812  	-27071,886360  	-0,102886  	-0,049998  	0,195612  	0,099118  	-4,141238  	5010,500990  	75697,677025  	10,979020  	-0,047949  
134,555000  	23,091082  	31,087847  	24,902533  	-242,047242  	79,958505  	70,002136  	0,007467  	0,006334  	0,003962  	0,004325  	0,004216  	-0,000001  	-0,000000  	26,448327  	24,709828  	25,718195  	25,622220  	28,721983  	27,524982  	28,977333  	28,650359  	31,520520  	31,061962  	34,368322  	62,742375  	27,040935  	26,140079  	28,054756  	68,641112  	0,270081  	0,136852  	-4575,617037  	-27077,115604  	-0,102906  	-0,050009  	0,197042  	0,099842  	-4,165068  	5008,113360  	75632,559623  	10,969575  	-0,047959  
135,556000  	23,096517  	31,092557  	24,903362  	657,183579  	79,954693  	69,995719  	0,007471  	0,006344  	0,003962  	0,004263  	0,004207  	0,000001  	-0,000000  	26,442126  	24,707603  	25,709826  	25,624362  	28,714962  	27,517047  	28,978592  	28,656853  	31,515058  	31,072157  	34,365419  	62,743752  	27,035580  	26,145725  	28,049434  	68,635905  	0,219738  	0,111343  	-3722,379810  	18454,319339  	-0,027565  	-0,049991  	0,189806  	0,096176  	-4,013160  	5031,418758  	75716,706672  	10,981780  	-0,047943  
136,555000  	23,099036  	31,100314  	24,903854  	1256,670793  	79,957568  	69,995595  	0,007477  	0,006327  	0,003965  	0,004268  	0,004267  	0,000000  	-0,000001  	26,439883  	24,697568  	25,711447  	25,615692  	28,711319  	27,511972  	28,964148  	28,641073  	31,512598  	31,063825  	34,356108  	62,732612  	27,029631  	26,160894  	28,033738  	68,635600  	0,224122  	0,113564  	-3799,135724  	25537,220328  	-0,018527  	-0,049998  	0,237905  	0,120548  	-5,031664  	4993,446586  	75847,181554  	11,000704  	-0,047949  
137,558000  	23,098114  	31,098406  	24,904345  	1256,670793  	79,962066  	69,988307  	0,007470  	0,006330  	0,003960  	0,004267  	0,004207  	0,000001  	-0,000000  	26,431408  	24,691165  	25,701687  	25,610330  	28,708813  	27,506580  	28,961420  	28,633050  	31,510411  	31,056426  	34,348209  	62,736462  	27,030388  	26,164389  	28,030833  	68,636954  	0,222757  	0,112873  	-3775,535301  	25534,324352  	-0,018525  	-0,049991  	0,190396  	0,096475  	-4,031627  	4999,260379  	75683,018196  	10,976894  	-0,047944  
138,555000  	23,118015  	31,103700  	24,904038  	657,183579  	79,965503  	69,986998  	0,007469  	0,006335  	0,003960  	0,004281  	0,004254  	0,000002  	-0,000000  	26,437176  	24,699601  	25,703024  	25,618527  	28,713842  	27,514828  	28,969877  	28,646465  	31,513336  	31,069150  	34,356989  	62,741037  	27,038842  	26,175172  	28,050154  	68,651409  	0,233995  	0,118567  	-3958,757523  	18450,434411  	-0,027560  	-0,049979  	0,227784  	0,115420  	-4,825593  	5012,024122  	75660,479186  	10,973625  	-0,047933  
139,558000  	23,118015  	31,107579  	24,905052  	-242,047242  	79,967409  	69,981423  	0,007467  	0,006332  	0,003958  	0,004262  	0,004251  	-0,000001  	-0,000000  	26,443009  	24,700939  	25,712210  	25,618171  	28,719325  	27,518353  	28,971568  	28,651672  	31,523894  	31,070630  	34,367076  	62,740077  	27,043207  	26,186499  	28,048571  	68,651614  	0,219044  	0,110991  	-3707,614014  	-27078,989908  	-0,102912  	-0,050012  	0,225269  	0,114146  	-4,775899  	5003,640885  	75622,723520  	10,968149  	-0,047962  
140,554000  	23,113224  	31,108318  	24,904806  	956,927186  	79,965034  	69,995439  	0,007477  	0,006326  	0,003961  	0,004242  	0,004203  	0,000001  	-0,000000  	26,436688  	24,696380  	25,705799  	25,613087  	28,717345  	27,517193  	28,969822  	28,652046  	31,521919  	31,065939  	34,362347  	62,734937  	27,040214  	26,171043  	28,040870  	68,646339  	0,202984  	0,102853  	-3438,151966  	22483,454458  	-0,022158  	-0,049990  	0,186721  	0,094613  	-3,952145  	4991,760742  	75841,207869  	10,999837  	-0,047943  
141,556000  	23,120625  	31,117275  	24,905083  	57,696365  	79,960817  	70,005842  	0,007465  	0,006338  	0,003961  	0,004289  	0,004192  	-0,000000  	-0,000000  	26,433240  	24,697328  	25,699167  	25,612678  	28,711256  	27,510490  	28,966024  	28,640412  	31,510977  	31,066469  	34,353442  	62,737396  	27,039009  	26,159220  	28,039198  	68,643422  	0,241081  	0,122158  	-4084,241566  	1776,400335  	-0,053853  	-0,050002  	0,178527  	0,090461  	-3,773186  	5017,269835  	75585,589230  	10,962763  	-0,047953  
142,554000  	23,104779  	31,119430  	24,905083  	657,183579  	79,962316  	69,996187  	0,007470  	0,006330  	0,003954  	0,004241  	0,004248  	-0,000000  	-0,000000  	26,441577  	24,696081  	25,704695  	25,621803  	28,714746  	27,513443  	28,970517  	28,638147  	31,516878  	31,069584  	34,357067  	62,738943  	27,038092  	26,156920  	28,040618  	68,645485  	0,201723  	0,102215  	-3425,159246  	18458,779534  	-0,027572  	-0,050004  	0,222988  	0,112990  	-4,718141  	4999,340320  	75684,804652  	10,977153  	-0,047955  
143,555000  	23,043881  	31,122200  	24,905359  	657,183579  	79,968252  	69,995688  	0,007470  	0,006338  	0,003956  	0,004314  	0,004211  	-0,000000  	-0,000000  	26,441371  	24,694924  	25,705706  	25,624215  	28,716709  	27,517776  	28,972389  	28,645563  	31,516627  	31,065507  	34,359998  	62,737055  	27,042941  	26,158538  	28,048066  	68,643170  	0,260809  	0,132154  	-4463,598192  	18459,121900  	-0,027573  	-0,050005  	0,193324  	0,097959  	-4,093134  	5016,942995  	75701,786582  	10,979616  	-0,047956  
144,554000  	23,003528  	31,123986  	24,905421  	1256,670793  	79,973064  	69,987030  	0,007466  	0,006329  	0,003963  	0,004288  	0,004272  	0,000001  	-0,000000  	26,435787  	24,696308  	25,702384  	25,613922  	28,708432  	27,514958  	28,968803  	28,642802  	31,510572  	31,058900  	34,356198  	62,734512  	27,044640  	26,152054  	28,044575  	68,635581  	0,239725  	0,121470  	-4124,174137  	25530,425760  	-0,018522  	-0,049983  	0,241769  	0,122506  	-5,125728  	4998,597502  	75605,903995  	10,965709  	-0,047937  
145,555000  	22,982892  	31,119707  	24,904683  	1256,670793  	79,976313  	69,983790  	0,007464  	0,006328  	0,003955  	0,004277  	0,004272  	0,000001  	-0,000001  	26,438933  	24,695684  	25,706520  	25,607380  	28,704300  	27,509974  	28,967870  	28,642228  	31,512860  	31,057152  	34,357371  	62,731842  	27,043426  	26,147540  	28,034834  	68,630138  	0,230944  	0,117021  	-3981,122540  	25533,565336  	-0,018525  	-0,049990  	0,241851  	0,122548  	-5,130798  	4995,701925  	75554,124998  	10,958199  	-0,047943  
146,556000  	22,980681  	31,108071  	24,903700  	1256,670793  	79,979874  	69,979617  	0,007465  	0,006238  	0,003958  	0,004270  	0,004203  	0,000002  	-0,000000  	26,440414  	24,697316  	25,710997  	25,608926  	28,706595  	27,510294  	28,971113  	28,646785  	31,513022  	31,057919  	34,363850  	62,732133  	27,048937  	26,162382  	28,039180  	68,629927  	0,225500  	0,114262  	-3882,765119  	25524,949584  	-0,018518  	-0,049971  	0,186880  	0,094693  	-3,967672  	4801,669964  	75593,179905  	10,963864  	-0,047926  
147,554000  	22,954793  	31,087663  	24,903147  	1256,670793  	79,982342  	69,991016  	0,007475  	0,006273  	0,003957  	0,004221  	0,004250  	0,000002  	-0,000000  	26,436022  	24,699700  	25,702584  	25,609614  	28,710121  	27,511926  	28,967365  	28,640685  	31,509882  	31,057200  	34,364951  	62,735204  	27,048527  	26,181795  	28,039764  	68,629152  	0,185349  	0,093917  	-3193,580383  	25527,114445  	-0,018520  	-0,049975  	0,223968  	0,113486  	-4,750866  	4878,139232  	75789,513605  	10,992340  	-0,047930  
148,558000  	22,995513  	31,065992  	24,903885  	57,696365  	79,985342  	69,989210  	0,007464  	0,006208  	0,003958  	0,004314  	0,004215  	-0,000000  	-0,000000  	26,434379  	24,693919  	25,690028  	25,609228  	28,713488  	27,506160  	28,957269  	28,637873  	31,508471  	31,053807  	34,360724  	62,738161  	27,045375  	26,204004  	28,031463  	68,618636  	0,260668  	0,132082  	-4456,872457  	1776,576575  	-0,053856  	-0,050006  	0,196731  	0,099685  	-4,175096  	4738,076923  	75553,969654  	10,958177  	-0,047956  
149,555000  	23,073638  	31,054018  	24,902932  	956,927186  	79,983561  	69,962985  	0,007466  	0,006229  	0,003960  	0,004329  	0,004205  	0,000001  	-0,000000  	26,435263  	24,692885  	25,696588  	25,610449  	28,708922  	27,513340  	28,968419  	28,642244  	31,515481  	31,051554  	34,361538  	62,737435  	27,050090  	26,235697  	28,034030  	68,613917  	0,273471  	0,138570  	-4623,561757  	22484,338480  	-0,022159  	-0,049992  	0,188387  	0,095457  	-4,007786  	4782,476243  	75603,524407  	10,965364  	-0,047944  
150,559000  	23,106621  	31,033209  	24,902010  	357,439972  	79,979812  	69,942740  	0,007477  	0,006314  	0,003962  	0,004238  	0,004242  	-0,000000  	-0,000000  	26,435854  	24,703001  	25,705136  	25,610865  	28,714964  	27,513156  	28,963106  	28,642990  	31,509623  	31,050482  	34,358278  	62,735584  	27,049405  	26,269624  	28,037044  	68,619161  	0,199188  	0,100930  	-3344,947741  	12500,999712  	-0,036470  	-0,050001  	0,218084  	0,110505  	-4,647191  	4965,337629  	75834,189142  	10,998819  	-0,047953  
151,555000  	23,135735  	31,018896  	24,900351  	1256,670793  	79,979593  	69,909102  	0,007467  	0,006355  	0,003962  	0,004338  	0,004237  	0,000000  	-0,000000  	26,436858  	24,694769  	25,700834  	25,611902  	28,715354  	27,503749  	28,966553  	28,643913  	31,508095  	31,064779  	34,361623  	62,735644  	27,050470  	26,284227  	28,035146  	68,616328  	0,280865  	0,142316  	-4690,692859  	25536,838264  	-0,018527  	-0,049997  	0,214208  	0,108541  	-4,579782  	5053,166360  	75617,251172  	10,967355  	-0,047948  
152,556000  	23,130391  	31,025114  	24,900044  	57,696365  	79,984842  	69,886117  	0,007469  	0,006334  	0,003963  	0,004263  	0,004221  	0,000001  	-0,000000  	26,434409  	24,704165  	25,700408  	25,615201  	28,715775  	27,509918  	28,960360  	28,639994  	31,507121  	31,063951  	34,364717  	62,742624  	27,061505  	26,300099  	28,039436  	68,619573  	0,219497  	0,111221  	-3671,184462  	1776,035068  	-0,053833  	-0,049982  	0,201346  	0,102023  	-4,316835  	5008,934705  	75674,516639  	10,975661  	-0,047936  
153,555000  	23,115681  	31,043491  	24,900105  	956,927186  	79,985092  	69,905365  	0,007471  	0,006226  	0,003962  	0,004228  	0,004275  	0,000001  	-0,000000  	26,442746  	24,696319  	25,710915  	25,612182  	28,710310  	27,512034  	28,968071  	28,645811  	31,513088  	31,067580  	34,371636  	62,744782  	27,067781  	26,309863  	28,043499  	68,621996  	0,191438  	0,097003  	-3215,294445  	22482,219219  	-0,022157  	-0,049986  	0,243861  	0,123566  	-5,218539  	4775,855962  	75706,129154  	10,980246  	-0,047940  
154,558000  	23,096149  	31,063376  	24,899737  	-242,047242  	79,982217  	69,936261  	0,007468  	0,006266  	0,003961  	0,004320  	0,004231  	0,000001  	-0,000000  	26,428120  	24,682538  	25,685538  	25,599288  	28,691403  	27,508487  	28,958829  	28,634811  	31,497183  	31,050128  	34,355909  	62,730148  	27,061670  	26,314049  	28,040024  	68,621623  	0,265622  	0,134592  	-4483,438858  	-27067,953695  	-0,102872  	-0,049990  	0,209597  	0,106204  	-4,470279  	4861,792274  	75653,467520  	10,972608  	-0,047943  
155,554000  	23,071642  	31,087109  	24,899552  	657,183579  	79,981124  	69,945387  	0,007467  	0,006343  	0,003961  	0,004274  	0,004174  	0,000001  	-0,000000  	26,431572  	24,689013  	25,698651  	25,606611  	28,706024  	27,495063  	28,961225  	28,635824  	31,508574  	31,062056  	34,354651  	62,731040  	27,067383  	26,323306  	28,049872  	68,621108  	0,228698  	0,115883  	-3883,581592  	18455,445035  	-0,027567  	-0,049994  	0,163961  	0,083080  	-3,493415  	5027,534879  	75616,382658  	10,967229  	-0,047946  
156,556000  	23,059358  	31,099175  	24,899184  	57,696365  	79,980437  	69,941525  	0,007470  	0,006324  	0,003956  	0,004235  	0,004250  	0,000000  	-0,000000  	26,436214  	24,694769  	25,698417  	25,604828  	28,707336  	27,506327  	28,971150  	28,640446  	31,509222  	31,055219  	34,361296  	62,734113  	27,073853  	26,312972  	28,043972  	68,629979  	0,197278  	0,099962  	-3360,212152  	1776,659163  	-0,053851  	-0,050000  	0,224033  	0,113519  	-4,774831  	4987,079571  	75688,066877  	10,977626  	-0,047951  
157,556000  	23,048641  	31,100099  	24,897924  	956,927186  	79,978437  	69,918259  	0,007476  	0,006335  	0,003961  	0,004309  	0,004206  	-0,000001  	-0,000000  	26,426949  	24,685951  	25,684261  	25,604733  	28,703793  	27,504666  	28,963057  	28,635524  	31,504084  	31,069114  	34,348046  	62,741074  	27,084223  	26,317820  	28,045592  	68,621034  	0,256962  	0,130204  	-4383,138485  	22490,533261  	-0,022165  	-0,050007  	0,189364  	0,095952  	-4,044460  	5010,179810  	75816,416370  	10,996242  	-0,047957  
158,557000  	23,070813  	31,088032  	24,897862  	357,439972  	79,977375  	69,925236  	0,007467  	0,006322  	0,003961  	0,004249  	0,004209  	0,000001  	-0,000000  	26,431713  	24,680312  	25,692536  	25,595526  	28,701011  	27,483357  	28,955013  	28,632301  	31,497789  	31,046963  	34,347998  	62,727896  	27,075777  	26,318435  	28,026334  	68,619912  	0,208209  	0,105501  	-3536,433198  	12498,691395  	-0,036463  	-0,049990  	0,191954  	0,097264  	-4,096511  	4983,625112  	75632,757333  	10,969604  	-0,047943  
159,554000  	23,097255  	31,075935  	24,897954  	357,439972  	79,979843  	69,947972  	0,007468  	0,006343  	0,003961  	0,004260  	0,004271  	0,000000  	-0,000001  	26,438846  	24,699547  	25,708066  	25,613509  	28,713712  	27,509721  	28,958214  	28,646041  	31,512207  	31,064103  	34,371681  	62,745212  	27,096732  	26,336392  	28,052321  	68,634614  	0,217159  	0,110036  	-3670,710264  	12499,767917  	-0,036466  	-0,049995  	0,240876  	0,122054  	-5,130218  	5028,625053  	75645,799173  	10,971496  	-0,047947  
160,556000  	23,121700  	31,073164  	24,897094  	956,927186  	79,986654  	69,957690  	0,007474  	0,006330  	0,003958  	0,004297  	0,004211  	-0,000001  	-0,000000  	26,421925  	24,693840  	25,695624  	25,602155  	28,696248  	27,507140  	28,960655  	28,624016  	31,498788  	31,051577  	34,355764  	62,732885  	27,077850  	26,321054  	28,031101  	68,630508  	0,247533  	0,125427  	-4169,850665  	22493,414329  	-0,022168  	-0,050014  	0,193515  	0,098056  	-4,120331  	5001,018382  	75771,585489  	10,989739  	-0,047963  
161,554000  	23,144241  	31,078120  	24,895404  	1256,670793  	79,992965  	69,968061  	0,007468  	0,006338  	0,003958  	0,004324  	0,004225  	0,000002  	-0,000000  	26,439323  	24,706448  	25,707463  	25,606747  	28,710674  	27,509415  	28,969684  	28,643214  	31,511772  	31,060219  	34,356333  	62,740546  	27,097014  	26,343466  	28,039043  	68,631414  	0,268903  	0,136255  	-4519,822387  	25525,237043  	-0,018518  	-0,049971  	0,204206  	0,103472  	-4,346193  	5017,543617  	75658,953990  	10,973404  	-0,047926  
162,553000  	23,160948  	31,084461  	24,895036  	657,183579  	79,995277  	69,960835  	0,007469  	0,006326  	0,003960  	0,004236  	0,004261  	0,000001  	-0,000000  	26,440593  	24,697680  	25,702799  	25,607505  	28,706097  	27,503431  	28,966833  	28,635989  	31,502989  	31,067468  	34,354772  	62,740809  	27,094080  	26,337360  	28,043802  	68,630710  	0,197836  	0,100245  	-3320,942479  	18452,049775  	-0,027562  	-0,049983  	0,233214  	0,118171  	-4,968313  	4991,005897  	75662,060871  	10,973854  	-0,047937  
163,555000  	23,142430  	31,097297  	24,895036  	657,183579  	79,993121  	69,971861  	0,007472  	0,006316  	0,003956  	0,004278  	0,004201  	-0,000000  	-0,000000  	26,432985  	24,683110  	25,697047  	25,595749  	28,693760  	27,508634  	28,956467  	28,626400  	31,496168  	31,054929  	34,352672  	62,740588  	27,088798  	26,327826  	28,044634  	68,631134  	0,231546  	0,117326  	-3902,201111  	18459,364930  	-0,027573  	-0,050005  	0,185408  	0,093947  	-3,944676  	4970,330784  	75728,526942  	10,983494  	-0,047956  
164,558000  	23,127136  	31,109980  	24,894175  	57,696365  	79,996495  	69,986375  	0,007473  	0,006329  	0,003957  	0,004255  	0,004203  	0,000001  	-0,000000  	26,425214  	24,684961  	25,691676  	25,600392  	28,697285  	27,495790  	28,957925  	28,619995  	31,498584  	31,050080  	34,348383  	62,731915  	27,085363  	26,325163  	28,044348  	68,627794  	0,212977  	0,107917  	-3601,882794  	1776,503083  	-0,053838  	-0,049986  	0,187006  	0,094757  	-3,974261  	4997,480444  	75761,544614  	10,988283  	-0,047939  
165,554000  	23,157570  	31,126941  	24,893346  	1256,670793  	80,005337  	69,989677  	0,007463  	0,006336  	0,003960  	0,004250  	0,004237  	-0,000000  	-0,000000  	26,426522  	24,690599  	25,691548  	25,606046  	28,695622  	27,497648  	28,958714  	28,627307  	31,500383  	31,049182  	34,348269  	62,733212  	27,079254  	26,316626  	28,044491  	68,630028  	0,209565  	0,106188  	-3538,197226  	25539,887427  	-0,018529  	-0,050003  	0,213993  	0,108432  	-4,550309  	5012,496696  	75530,844574  	10,954823  	-0,047954  
166,556000  	23,149585  	31,132851  	24,892731  	1256,670793  	80,011210  	69,996093  	0,007467  	0,006335  	0,003960  	0,004266  	0,004195  	0,000000  	-0,000000  	26,431077  	24,692651  	25,703240  	25,604313  	28,701912  	27,502125  	28,961935  	28,634259  	31,507976  	31,050541  	34,353437  	62,735983  	27,080037  	26,315050  	28,045936  	68,637309  	0,222001  	0,112490  	-3754,695291  	25537,977315  	-0,018528  	-0,049999  	0,180533  	0,091478  	-3,838631  	5010,113310  	75627,758079  	10,968879  	-0,047950  
167,555000  	23,129224  	31,135899  	24,892731  	1256,670793  	80,016084  	69,995844  	0,007475  	0,006335  	0,003964  	0,004318  	0,004204  	0,000001  	-0,000000  	26,431636  	24,688892  	25,704678  	25,605004  	28,699650  	27,494206  	28,969525  	28,630645  	31,503024  	31,053788  	34,347699  	62,734500  	27,083321  	26,296414  	28,042345  	68,633545  	0,264300  	0,133923  	-4483,203141  	25533,636616  	-0,018524  	-0,049989  	0,187992  	0,095257  	-3,999261  	5011,117884  	75801,475097  	10,994074  	-0,047942  
168,555000  	23,129163  	31,143964  	24,891748  	1256,670793  	80,018771  	70,005749  	0,007467  	0,006340  	0,003957  	0,004226  	0,004285  	-0,000001  	-0,000000  	26,434905  	24,688549  	25,703893  	25,611374  	28,699198  	27,498263  	28,971407  	28,635893  	31,500464  	31,049722  	34,352220  	62,741015  	27,076749  	26,277231  	28,044151  	68,630879  	0,189467  	0,096005  	-3217,118053  	25542,101154  	-0,018531  	-0,050007  	0,251840  	0,127609  	-5,353687  	5022,262990  	75623,817989  	10,968307  	-0,047958  
169,558000  	23,102874  	31,151875  	24,890703  	956,927186  	80,023426  	69,999021  	0,007466  	0,006333  	0,003961  	0,004321  	0,004239  	0,000003  	-0,000000  	26,437408  	24,691176  	25,706575  	25,610949  	28,701973  	27,504741  	28,970549  	28,637069  	31,504516  	31,053767  	34,360136  	62,736374  	27,065097  	26,263773  	28,043080  	68,631726  	0,266727  	0,135153  	-4548,309428  	22474,977911  	-0,022149  	-0,049967  	0,215735  	0,109314  	-4,591361  	5007,739121  	75602,458182  	10,965210  	-0,047923  
170,555000  	23,083588  	31,148920  	24,889904  	-242,047242  	80,026425  	70,000641  	0,007468  	0,006325  	0,003963  	0,004272  	0,004240  	-0,000000  	-0,000000  	26,431914  	24,684123  	25,696609  	25,601424  	28,695014  	27,496712  	28,964407  	28,627130  	31,503847  	31,049906  	34,346569  	62,722638  	27,050884  	26,246121  	28,032633  	68,622417  	0,226743  	0,114893  	-3874,340728  	-27075,592353  	-0,102905  	-0,050006  	0,216514  	0,109709  	-4,608592  	4989,124798  	75648,531816  	10,971892  	-0,047957  
171,555000  	23,066084  	31,148920  	24,889443  	-242,047242  	80,027394  	70,016557  	0,007477  	0,006328  	0,003959  	0,004301  	0,004255  	0,000001  	-0,000000  	26,432007  	24,679980  	25,689215  	25,597515  	28,695723  	27,493417  	28,958745  	28,626313  	31,500382  	31,049548  	34,337188  	62,721430  	27,040508  	26,234328  	28,025680  	68,622769  	0,250761  	0,127063  	-4294,035173  	-27068,554732  	-0,102878  	-0,049991  	0,227895  	0,115476  	-4,843607  	4995,695558  	75841,871612  	10,999933  	-0,047944  
172,554000  	23,059819  	31,139439  	24,888829  	956,927186  	80,024832  	70,019733  	0,007470  	0,006324  	0,003960  	0,004253  	0,004249  	0,000000  	-0,000000  	26,437470  	24,690214  	25,695295  	25,606362  	28,706383  	27,504361  	28,960408  	28,637562  	31,502357  	31,064221  	34,349112  	62,726379  	27,045700  	26,235911  	28,028678  	68,637884  	0,211335  	0,107085  	-3617,464312  	22488,175055  	-0,022162  	-0,050000  	0,223492  	0,113245  	-4,747304  	4987,034295  	75687,487868  	10,977542  	-0,047951  
173,555000  	23,002699  	31,134852  	24,888092  	956,927186  	80,021676  	70,016183  	0,007471  	0,006324  	0,003959  	0,004274  	0,004197  	0,000000  	-0,000001  	26,436997  	24,697768  	25,699135  	25,615486  	28,708778  	27,513912  	28,961425  	28,643598  	31,509368  	31,059951  	34,359215  	62,731228  	27,053856  	26,245428  	28,034204  	68,640254  	0,228372  	0,115718  	-3934,519181  	22485,975681  	-0,022160  	-0,049994  	0,182373  	0,092410  	-3,874026  	4987,472204  	75715,972318  	10,981673  	-0,047947  
174,554000  	22,960628  	31,127649  	24,887477  	357,439972  	80,018240  	70,016619  	0,007476  	0,006319  	0,003957  	0,004274  	0,004257  	-0,000001  	-0,000000  	26,441476  	24,701000  	25,704200  	25,618486  	28,711989  	27,517135  	28,965600  	28,644456  	31,512350  	31,055596  	34,360868  	62,738446  	27,049332  	26,251296  	28,039474  	68,638291  	0,228398  	0,115731  	-3951,850812  	12503,617395  	-0,036476  	-0,050010  	0,230109  	0,116598  	-4,886169  	4976,947527  	75824,593116  	10,997427  	-0,047960  
175,556000  	22,935477  	31,117952  	24,887200  	357,439972  	80,018802  	70,021447  	0,007466  	0,006223  	0,003961  	0,004335  	0,004246  	-0,000002  	-0,000000  	26,442917  	24,700542  	25,702343  	25,621295  	28,710625  	27,513944  	28,968388  	28,650604  	31,513484  	31,057693  	34,355449  	62,737194  	27,042338  	26,247356  	28,044667  	68,638653  	0,278431  	0,141083  	-4826,674441  	12506,004126  	-0,036483  	-0,050021  	0,220900  	0,111932  	-4,688630  	4769,735845  	75606,073462  	10,965734  	-0,047969  
176,554000  	22,942847  	31,102931  	24,886279  	956,927186  	80,022301  	70,022755  	0,007464  	0,006260  	0,003961  	0,004282  	0,004237  	-0,000000  	-0,000000  	26,437264  	24,687793  	25,699368  	25,613009  	28,703080  	27,506751  	28,967327  	28,637762  	31,513387  	31,059853  	34,355526  	62,724893  	27,041642  	26,248042  	28,033263  	68,635612  	0,235333  	0,119245  	-4068,384556  	22490,449160  	-0,022165  	-0,050005  	0,214046  	0,108459  	-4,544147  	4848,934441  	75571,304638  	10,960691  	-0,047956  
177,557000  	22,965633  	31,074642  	24,883821  	956,927186  	80,020177  	70,004659  	0,007471  	0,006338  	0,003959  	0,004297  	0,004222  	0,000000  	-0,000000  	26,435757  	24,695188  	25,705691  	25,615606  	28,709578  	27,523175  	28,967615  	28,641355  	31,514072  	31,060942  	34,354333  	62,725804  	27,043820  	26,249512  	28,038438  	68,638473  	0,247009  	0,125161  	-4243,511990  	22487,861794  	-0,022162  	-0,049999  	0,202285  	0,102500  	-4,301319  	5016,689022  	75722,560318  	10,982629  	-0,047950  
178,555000  	23,004757  	31,054203  	24,882837  	357,439972  	80,018865  	69,992823  	0,007468  	0,006321  	0,003959  	0,004260  	0,004238  	0,000001  	-0,000000  	26,442418  	24,699756  	25,699474  	25,619052  	28,710955  	27,517864  	28,967937  	28,638465  	31,506422  	31,058683  	34,357625  	62,728386  	27,032512  	26,239264  	28,043700  	68,633566  	0,217241  	0,110078  	-3704,685120  	12499,774457  	-0,036464  	-0,049992  	0,214656  	0,108768  	-4,569144  	4981,267901  	75647,889256  	10,971799  	-0,047944  
179,555000  	23,040595  	31,033240  	24,881547  	1256,670793  	80,013960  	69,971550  	0,007463  	0,006338  	0,003956  	0,004294  	0,004216  	0,000002  	-0,000000  	26,439727  	24,701491  	25,706062  	25,622570  	28,712504  	27,522079  	28,968533  	28,646470  	31,515972  	31,072558  	34,370565  	62,741077  	27,057006  	26,252939  	28,050287  	68,644007  	0,244959  	0,124123  	-4147,880887  	25530,288562  	-0,018522  	-0,049981  	0,197714  	0,100183  	-4,215381  	5018,104622  	75551,067545  	10,957756  	-0,047935  
180,554000  	23,061109  	31,023205  	24,881055  	57,696365  	80,008586  	69,969245  	0,007467  	0,006344  	0,003962  	0,004189  	0,004239  	0,000001  	-0,000000  	26,437469  	24,698417  	25,698086  	25,616623  	28,701462  	27,506146  	28,971962  	28,641771  	31,501988  	31,051908  	34,354184  	62,728277  	27,048045  	26,231235  	28,031582  	68,628038  	0,159752  	0,080948  	-2694,737504  	1777,117333  	-0,053835  	-0,049982  	0,215274  	0,109081  	-4,588377  	5030,803280  	75617,321783  	10,967365  	-0,047936  
181,554000  	23,079473  	31,027515  	24,879488  	57,696365  	80,008555  	69,969556  	0,007473  	0,006332  	0,003957  	0,004266  	0,004178  	0,000000  	-0,000001  	26,445698  	24,700097  	25,713441  	25,620720  	28,714098  	27,509294  	28,980308  	28,654904  	31,519973  	31,067598  	34,369596  	62,734153  	27,048139  	26,247374  	28,042872  	68,642082  	0,222046  	0,112512  	-3738,906098  	1777,774936  	-0,053853  	-0,050000  	0,166983  	0,084611  	-3,558960  	5004,857693  	75746,087881  	10,986041  	-0,047951  
182,558000  	23,093969  	31,043337  	24,878874  	1256,670793  	80,006305  	69,978153  	0,007467  	0,006337  	0,003959  	0,004292  	0,004222  	0,000001  	-0,000000  	26,432738  	24,697748  	25,704206  	25,621222  	28,711729  	27,516892  	28,965615  	28,644150  	31,520252  	31,068317  	34,358084  	62,743743  	27,047597  	26,230023  	28,041890  	68,640266  	0,242907  	0,123083  	-4090,851727  	25535,247097  	-0,018525  	-0,049992  	0,202198  	0,102455  	-4,304875  	5016,290022  	75630,194156  	10,969232  	-0,047944  
183,557000  	23,117001  	31,055342  	24,877491  	1256,670793  	79,996308  	70,010016  	0,007470  	0,006330  	0,003961  	0,004227  	0,004245  	-0,000000  	-0,000000  	26,444471  	24,699579  	25,704870  	25,610359  	28,713081  	27,506292  	28,970885  	28,648260  	31,513118  	31,063932  	34,360634  	62,737275  	27,047633  	26,242730  	28,043535  	68,636943  	0,190397  	0,096476  	-3202,063371  	25540,244253  	-0,018529  	-0,050002  	0,220312  	0,111634  	-4,670954  	5000,267782  	75699,272832  	10,979251  	-0,047953  
184,557000  	23,143904  	31,071779  	24,876078  	1256,670793  	79,991996  	70,007399  	0,007475  	0,006341  	0,003961  	0,004310  	0,004219  	0,000000  	-0,000000  	26,437038  	24,692134  	25,703774  	25,591337  	28,701175  	27,513446  	28,953101  	28,633706  	31,499263  	31,055135  	34,350355  	62,727409  	27,037282  	26,241218  	28,026791  	68,637838  	0,257778  	0,130618  	-4329,546720  	25537,445456  	-0,018527  	-0,049996  	0,199989  	0,101336  	-4,239365  	5023,276053  	75794,258660  	10,993028  	-0,047948  
185,554000  	23,169148  	31,085939  	24,875463  	956,927186  	79,990872  	69,997432  	0,007467  	0,006340  	0,003964  	0,004303  	0,004279  	-0,000000  	-0,000000  	26,429804  	24,675337  	25,699570  	25,595506  	28,689555  	27,496878  	28,949047  	28,630010  	31,496871  	31,049788  	34,351549  	62,723433  	27,042509  	26,245334  	28,020531  	68,627930  	0,252089  	0,127735  	-4228,065809  	22490,901063  	-0,022165  	-0,050006  	0,246840  	0,125076  	-5,237131  	5022,468149  	75622,003288  	10,968044  	-0,047956  
186,557000  	23,161716  	31,099852  	24,872944  	357,439972  	79,990809  	69,998429  	0,007468  	0,006339  	0,003957  	0,004246  	0,004205  	0,000001  	-0,000000  	26,429145  	24,686637  	25,693594  	25,608175  	28,691686  	27,507301  	28,954161  	28,635268  	31,499199  	31,055878  	34,347441  	62,734149  	27,046218  	26,245673  	28,033787  	68,632558  	0,205942  	0,104352  	-3463,394392  	12499,562963  	-0,036463  	-0,049989  	0,188349  	0,095438  	-3,995720  	5019,155179  	75653,036793  	10,972545  	-0,047942  
187,555000  	23,123850  	31,112873  	24,872206  	357,439972  	79,990059  	69,993228  	0,007470  	0,006291  	0,003961  	0,004281  	0,004240  	0,000001  	-0,000000  	26,418720  	24,682591  	25,686492  	25,593631  	28,691776  	27,491364  	28,940066  	28,624490  	31,489962  	31,044491  	34,336255  	62,730900  	27,046806  	26,241174  	28,037355  	68,626682  	0,234267  	0,118705  	-3965,015403  	12500,525409  	-0,036465  	-0,049993  	0,216204  	0,109552  	-4,588701  	4917,167621  	75689,690929  	10,977862  	-0,047945  
188,556000  	23,106406  	31,127095  	24,870547  	956,927186  	79,986560  	70,009050  	0,007472  	0,006359  	0,003960  	0,004268  	0,004173  	-0,000000  	-0,000001  	26,418239  	24,681334  	25,699288  	25,594772  	28,695562  	27,497805  	28,950874  	28,627614  	31,500781  	31,052416  	34,343551  	62,732315  	27,045165  	26,242334  	28,048706  	68,620393  	0,223824  	0,113413  	-3803,284940  	22489,176367  	-0,022163  	-0,050001  	0,163106  	0,082647  	-3,455065  	5062,640479  	75731,930389  	10,983988  	-0,047952  
189,554000  	23,124740  	31,143594  	24,869871  	956,927186  	79,984998  	70,018519  	0,007462  	0,006334  	0,003960  	0,004273  	0,004289  	0,000002  	-0,000001  	26,423544  	24,679043  	25,696783  	25,595254  	28,695427  	27,501328  	28,955357  	28,629594  	31,499711  	31,046217  	34,339730  	62,731806  	27,050627  	26,258527  	28,037585  	68,625875  	0,228155  	0,115608  	-3875,984030  	22479,891559  	-0,022154  	-0,049978  	0,255446  	0,129436  	-5,405116  	5009,602534  	75519,130220  	10,953124  	-0,047932  
190,556000  	23,118967  	31,139716  	24,868335  	357,439972  	79,989372  	70,017148  	0,007469  	0,006258  	0,003956  	0,004274  	0,004253  	-0,000000  	-0,000001  	26,422751  	24,683287  	25,693558  	25,596234  	28,701700  	27,498824  	28,955173  	28,627812  	31,501180  	31,055668  	34,354148  	62,728779  	27,050725  	26,263379  	28,030451  	68,626937  	0,228779  	0,115924  	-3887,515035  	12503,225623  	-0,036473  	-0,050004  	0,226597  	0,114818  	-4,797455  	4844,053062  	75671,791057  	10,975265  	-0,047955  
191,556000  	23,098882  	31,132697  	24,867044  	1256,670793  	79,989591  	69,992324  	0,007471  	0,006272  	0,003961  	0,004289  	0,004194  	-0,000001  	-0,000000  	26,425239  	24,681248  	25,687215  	25,599637  	28,690023  	27,499395  	28,951018  	28,628420  	31,503491  	31,048540  	34,353497  	62,731531  	27,053467  	26,266926  	28,025922  	68,627724  	0,240461  	0,121843  	-4092,675145  	25542,632676  	-0,018531  	-0,050007  	0,179552  	0,090981  	-3,810969  	4875,162299  	75710,514093  	10,980882  	-0,047957  
192,555000  	23,091020  	31,132636  	24,864279  	1256,670793  	79,989841  	70,005281  	0,007467  	0,006352  	0,003961  	0,004310  	0,004192  	0,000000  	-0,000000  	26,423154  	24,682925  	25,686159  	25,600647  	28,688235  	27,496208  	28,952101  	28,627514  	31,497673  	31,043600  	34,350901  	62,730995  	27,047538  	26,267701  	28,030745  	68,626686  	0,257954  	0,130707  	-4394,673617  	25537,384620  	-0,018527  	-0,049995  	0,178221  	0,090306  	-3,777913  	5047,094350  	75635,631198  	10,970021  	-0,047947  
193,557000  	23,099312  	31,129742  	24,865017  	1256,670793  	79,993027  	69,986967  	0,007468  	0,006303  	0,003961  	0,004297  	0,004303  	-0,000001  	-0,000000  	26,428564  	24,691860  	25,693040  	25,598344  	28,695124  	27,499376  	28,962875  	28,631727  	31,496676  	31,043813  	34,351572  	62,734801  	27,054485  	26,258618  	28,037823  	68,625113  	0,247091  	0,125203  	-4203,750787  	25545,707649  	-0,018533  	-0,050014  	0,266018  	0,134793  	-5,651149  	4941,973513  	75643,250118  	10,971126  	-0,047963  
194,555000  	23,111780  	31,117060  	24,864894  	1256,670793  	79,998026  	69,970397  	0,007469  	0,006256  	0,003960  	0,004315  	0,004182  	-0,000000  	-0,000000  	26,425059  	24,691857  	25,698577  	25,604730  	28,699708  	27,499777  	28,962670  	28,634123  	31,504732  	31,050809  	34,352408  	62,738598  	27,064406  	26,242725  	28,033696  	68,625054  	0,262083  	0,132799  	-4444,835009  	25540,566573  	-0,018529  	-0,050002  	0,170527  	0,086407  	-3,630392  	4841,170927  	75677,051572  	10,976028  	-0,047953  
195,557000  	23,099803  	31,101915  	24,862958  	1256,670793  	79,991903  	69,960617  	0,007472  	0,006360  	0,003964  	0,004275  	0,004226  	0,000001  	-0,000000  	26,428733  	24,691983  	25,698703  	25,613441  	28,705175  	27,501735  	28,963393  	28,638920  	31,511927  	31,061117  	34,354784  	62,739915  	27,061034  	26,221988  	28,028128  	68,624390  	0,229664  	0,116372  	-3893,475957  	25533,170740  	-0,018524  	-0,049986  	0,205257  	0,104005  	-4,371343  	5063,959866  	75737,353309  	10,984774  	-0,047939  
196,555000  	23,087581  	31,096374  	24,861913  	1256,670793  	79,986466  	69,967906  	0,007469  	0,006303  	0,003956  	0,004311  	0,004258  	0,000001  	-0,000000  	26,436135  	24,688433  	25,693435  	25,613041  	28,707093  	27,506037  	28,970557  	28,645803  	31,508339  	31,060719  	34,354417  	62,736865  	27,054256  	26,204035  	28,024116  	68,621989  	0,258669  	0,131070  	-4388,868029  	25532,495766  	-0,018523  	-0,049984  	0,230551  	0,116822  	-4,903808  	4941,175513  	75660,189681  	10,973583  	-0,047938  
197,556000  	23,106038  	31,108810  	24,861698  	956,927186  	79,984217  	69,966130  	0,007470  	0,006367  	0,003958  	0,004287  	0,004248  	0,000001  	-0,000000  	26,429898  	24,680359  	25,690275  	25,609309  	28,703133  	27,502016  	28,964105  	28,641926  	31,502133  	31,054860  	34,351748  	62,734121  	27,054036  	26,184645  	28,022608  	68,620450  	0,238864  	0,121034  	-4049,783201  	22481,957289  	-0,022156  	-0,049982  	0,222558  	0,112772  	-4,733574  	5079,346112  	75689,161347  	10,977785  	-0,047936  
198,556000  	23,101308  	31,110472  	24,861514  	357,439972  	79,988966  	69,963452  	0,007472  	0,006369  	0,003960  	0,004250  	0,004222  	0,000002  	-0,000000  	26,425927  	24,679575  	25,691915  	25,602797  	28,700668  	27,496097  	28,953488  	28,635065  	31,496703  	31,050767  	34,348787  	62,732652  	27,054627  	26,154898  	28,020991  	68,618715  	0,208992  	0,105898  	-3546,144622  	12498,467750  	-0,036458  	-0,049981  	0,202071  	0,102391  	-4,301014  	5084,731192  	75745,056961  	10,985892  	-0,047935  
199,557000  	23,085093  	31,105947  	24,862528  	1256,670793  	79,994839  	69,969868  	0,007467  	0,006334  	0,003959  	0,004289  	0,004267  	0,000001  	-0,000000  	26,425637  	24,681638  	25,695113  	25,594598  	28,698892  	27,499674  	28,954992  	28,637482  	31,493171  	31,045197  	34,344657  	62,727472  	27,056464  	26,133179  	28,016312  	68,608948  	0,240956  	0,122094  	-4094,486709  	25535,251314  	-0,018525  	-0,049990  	0,237933  	0,120562  	-5,064057  	5009,613853  	75634,755623  	10,969894  	-0,047943  
200,557000  	23,082452  	31,107302  	24,862282  	57,696365  	79,998838  	69,985441  	0,007473  	0,006339  	0,003959  	0,004289  	0,004216  	0,000000  	-0,000000  	26,426856  	24,685295  	25,699260  	25,599852  	28,699644  	27,508402  	28,960546  	28,639852  	31,503531  	31,046241  	34,348303  	62,728751  	27,065733  	26,128005  	28,021083  	68,598046  	0,240692  	0,121960  	-4092,032794  	1778,602041  	-0,053849  	-0,049995  	0,197657  	0,100154  	-4,202008  	5019,598748  	75765,216383  	10,988816  	-0,047947  
201,558000  	23,075205  	31,113335  	24,861637  	57,696365  	80,001213  	70,005468  	0,007477  	0,006339  	0,003961  	0,004238  	0,004185  	0,000001  	-0,000000  	26,436416  	24,686232  	25,699914  	25,610567  	28,705317  	27,507929  	28,969201  	28,640872  	31,509198  	31,056699  	34,359639  	62,732846  	27,071218  	26,123117  	28,024373  	68,599422  	0,199226  	0,100949  	-3392,680537  	1778,560184  	-0,053847  	-0,049993  	0,173115  	0,087719  	-3,673782  	5019,263418  	75831,689515  	10,998457  	-0,047945  
202,556000  	23,052111  	31,116352  	24,861637  	657,183579  	80,001900  	70,002291  	0,007469  	0,006344  	0,003963  	0,004316  	0,004252  	0,000001  	-0,000000  	26,436804  	24,690885  	25,708142  	25,611658  	28,698406  	27,503015  	28,968430  	28,645767  	31,510943  	31,068353  	34,363778  	62,734914  	27,076490  	26,126679  	28,029254  	68,594609  	0,262366  	0,132943  	-4482,428878  	18453,972372  	-0,027563  	-0,049984  	0,226222  	0,114629  	-4,802661  	5030,339903  	75672,447739  	10,975361  	-0,047938  
203,558000  	23,024748  	31,110534  	24,861268  	657,183579  	80,004368  	70,000329  	0,007470  	0,006336  	0,003962  	0,004294  	0,004210  	-0,000000  	-0,000000  	26,436108  	24,688111  	25,693585  	25,611891  	28,701046  	27,507786  	28,959095  	28,639949  	31,510285  	31,060089  	34,361064  	62,731598  	27,072238  	26,128285  	28,030811  	68,594736  	0,244661  	0,123972  	-4191,119506  	18459,919568  	-0,027572  	-0,050002  	0,192484  	0,097533  	-4,088213  	5014,305636  	75685,687289  	10,977281  	-0,047953  
204,555000  	22,977395  	31,107456  	24,861760  	1256,670793  	80,005618  	70,003818  	0,007468  	0,006339  	0,003961  	0,004229  	0,004219  	0,000002  	-0,000000  	26,433548  	24,685805  	25,693916  	25,611889  	28,697588  	27,512629  	28,965476  	28,635755  	31,499463  	31,053923  	34,355902  	62,739451  	27,068109  	26,128355  	28,020872  	68,595019  	0,192329  	0,097455  	-3312,709084  	25530,858657  	-0,018522  	-0,049981  	0,199355  	0,101014  	-4,233192  	5020,154093  	75656,087186  	10,972988  	-0,047935  
205,557000  	22,931485  	31,102715  	24,860961  	1256,670793  	80,006024  	70,016463  	0,007472  	0,006341  	0,003960  	0,004274  	0,004295  	-0,000001  	-0,000000  	26,428483  	24,686850  	25,702211  	25,607571  	28,708204  	27,506520  	28,966186  	28,636855  	31,501056  	31,053425  	34,351204  	62,737050  	27,065782  	26,129953  	28,026634  	68,592004  	0,228342  	0,115702  	-3952,920033  	25544,283089  	-0,018532  	-0,050010  	0,259978  	0,131733  	-5,513759  	5023,825031  	75724,636280  	10,982930  	-0,047960  
206,555000  	22,956973  	31,091818  	24,860039  	1256,670793  	80,010710  	70,019827  	0,007465  	0,006336  	0,003960  	0,004264  	0,004221  	0,000001  	-0,000000  	26,438936  	24,683791  	25,692079  	25,609241  	28,704904  	27,501094  	28,958635  	28,634382  	31,503743  	31,059086  	34,349284  	62,730987  	27,075487  	26,128846  	28,029173  	68,589443  	0,220664  	0,111812  	-3802,994082  	25532,943646  	-0,018523  	-0,049985  	0,201565  	0,102134  	-4,275464  	5013,077509  	75590,341346  	10,963452  	-0,047939  
207,557000  	23,008565  	31,074642  	24,859763  	1256,670793  	80,012054  	70,014875  	0,007466  	0,006349  	0,003962  	0,004248  	0,004243  	0,000001  	-0,000000  	26,432910  	24,692881  	25,702659  	25,611385  	28,710233  	27,499510  	28,959930  	28,638001  	31,508774  	31,062934  	34,350820  	62,735795  	27,072882  	26,143897  	28,028299  	68,592201  	0,207517  	0,105150  	-3546,163473  	25535,051043  	-0,018525  	-0,049990  	0,218684  	0,110809  	-4,641510  	5041,013850  	75612,703828  	10,966696  	-0,047943  
208,555000  	23,059973  	31,053279  	24,859271  	1256,670793  	80,009117  	69,999987  	0,007468  	0,006336  	0,003958  	0,004259  	0,004261  	0,000000  	-0,000000  	26,426767  	24,693151  	25,689368  	25,609379  	28,703599  	27,508395  	28,956670  	28,641076  	31,515582  	31,056535  	34,356956  	62,722009  	27,065800  	26,133270  	28,027185  	68,598639  	0,216506  	0,109705  	-3666,389640  	25539,598626  	-0,018528  	-0,050000  	0,232879  	0,118002  	-4,948695  	5012,605643  	75654,159507  	10,972708  	-0,047951  
209,557000  	23,096026  	31,037211  	24,858411  	-242,047242  	80,009961  	70,004721  	0,007471  	0,006340  	0,003957  	0,004297  	0,004233  	-0,000000  	-0,000000  	26,433842  	24,681780  	25,696192  	25,602603  	28,700979  	27,499355  	28,965337  	28,637077  	31,502424  	31,051628  	34,356713  	62,729618  	27,069468  	26,134868  	28,022110  	68,603998  	0,247206  	0,125261  	-4158,969236  	-27073,619644  	-0,102910  	-0,050003  	0,211032  	0,106931  	-4,482690  	5021,223752  	75723,089900  	10,982706  	-0,047954  
210,554000  	23,101677  	31,041459  	24,858165  	-242,047242  	80,013397  	70,004845  	0,007468  	0,006334  	0,003960  	0,004250  	0,004243  	0,000000  	-0,000000  	26,441348  	24,695944  	25,702201  	25,617686  	28,702558  	27,521434  	28,971943  	28,645277  	31,509281  	31,075661  	34,362002  	62,736312  	27,082971  	26,143074  	28,024782  	68,609608  	0,209095  	0,105950  	-3517,158883  	-27070,858895  	-0,102899  	-0,049998  	0,218342  	0,110636  	-4,639514  	5009,290550  	75644,775314  	10,971347  	-0,047949  
211,558000  	23,099742  	31,057712  	24,857980  	-242,047242  	80,017646  	70,003381  	0,007473  	0,006333  	0,003958  	0,004285  	0,004281  	-0,000001  	-0,000000  	26,429861  	24,691083  	25,692379  	25,604424  	28,695330  	27,507179  	28,959601  	28,644033  	31,508829  	31,059889  	34,351833  	62,734653  	27,078579  	26,126162  	28,026291  	68,594930  	0,237360  	0,120272  	-4001,760390  	-27075,793412  	-0,102918  	-0,050008  	0,249089  	0,126215  	-5,295859  	5006,572542  	75753,141913  	10,987064  	-0,047958  
212,555000  	23,097101  	31,077351  	24,857489  	-242,047242  	80,018896  	70,022630  	0,007471  	0,006344  	0,003962  	0,004296  	0,004221  	-0,000001  	-0,000000  	26,443586  	24,695638  	25,710284  	25,609218  	28,712816  	27,514926  	28,966344  	28,646441  	31,511909  	31,076511  	34,375305  	62,744184  	27,085473  	26,136048  	28,038588  	68,611199  	0,246356  	0,124831  	-4165,058982  	-27079,440862  	-0,102932  	-0,050015  	0,200935  	0,101815  	-4,264395  	5031,424418  	75708,438131  	10,980581  	-0,047965  
213,556000  	23,077876  	31,087663  	24,854939  	1256,670793  	80,017646  	70,021135  	0,007466  	0,006345  	0,003960  	0,004259  	0,004220  	0,000002  	-0,000001  	26,432591  	24,685235  	25,701164  	25,607261  	28,700549  	27,503362  	28,962738  	28,633402  	31,511890  	31,061382  	34,363574  	62,727539  	27,077500  	26,129008  	28,028967  	68,610135  	0,216449  	0,109676  	-3672,970446  	25531,227433  	-0,018522  	-0,049981  	0,200264  	0,101475  	-4,250259  	5033,037395  	75614,744484  	10,966991  	-0,047935  
214,554000  	23,091757  	31,096528  	24,854816  	657,183579  	80,012210  	70,036023  	0,007471  	0,006331  	0,003957  	0,004313  	0,004263  	0,000002  	-0,000000  	26,422668  	24,679356  	25,698067  	25,596087  	28,695586  	27,495142  	28,950191  	28,623363  	31,496633  	31,048357  	34,348136  	62,720399  	27,068659  	26,127054  	28,023004  	68,609346  	0,260292  	0,131892  	-4414,191127  	18450,557115  	-0,027558  	-0,049973  	0,234272  	0,118708  	-4,961938  	5003,347295  	75706,319803  	10,980273  	-0,047928  
215,558000  	23,101155  	31,101145  	24,853802  	-242,047242  	80,000400  	70,026960  	0,007477  	0,006338  	0,003959  	0,004289  	0,004248  	0,000000  	-0,000000  	26,427001  	24,682340  	25,702695  	25,600550  	28,703548  	27,506356  	28,964984  	28,637154  	31,498530  	31,059824  	34,354713  	62,733091  	27,074738  	26,130640  	28,037597  	68,616959  	0,241126  	0,122180  	-4086,704829  	-27070,956582  	-0,102901  	-0,049998  	0,222291  	0,112636  	-4,706860  	5017,474995  	75844,441850  	11,000306  	-0,047950  
216,555000  	23,112702  	31,104593  	24,853372  	956,927186  	79,988841  	70,036864  	0,007461  	0,006341  	0,003956  	0,004242  	0,004221  	0,000000  	-0,000000  	26,424267  	24,687187  	25,703994  	25,602734  	28,704015  	27,504177  	28,969205  	28,638394  	31,509175  	31,060180  	34,358596  	62,733510  	27,082019  	26,140250  	28,049121  	68,621138  	0,202980  	0,102852  	-3436,716386  	22487,439436  	-0,022161  	-0,049995  	0,201137  	0,101918  	-4,249780  	5023,339723  	75488,922863  	10,948743  	-0,047947  
217,557000  	23,103734  	31,102592  	24,853464  	956,927186  	79,980062  	70,029950  	0,007467  	0,006339  	0,003960  	0,004237  	0,004262  	0,000001  	-0,000000  	26,419561  	24,688214  	25,700218  	25,604352  	28,697759  	27,509223  	28,958453  	28,632496  	31,501000  	31,061964  	34,357987  	62,733379  	27,087648  	26,140410  	28,035904  	68,617568  	0,198352  	0,100507  	-3361,286021  	22486,655419  	-0,022160  	-0,049993  	0,233754  	0,118445  	-4,938012  	5019,811689  	75619,157668  	10,967632  	-0,047945  
218,555000  	23,095934  	31,107948  	24,852911  	357,439972  	79,979437  	70,025714  	0,007475  	0,006338  	0,003956  	0,004300  	0,004242  	0,000000  	-0,000000  	26,417550  	24,681327  	25,691994  	25,604832  	28,690514  	27,500588  	28,950932  	28,627751  	31,498763  	31,055029  	34,348934  	62,730456  	27,078533  	26,126126  	28,028196  	68,615724  	0,249572  	0,126460  	-4236,217552  	12502,009698  	-0,036468  	-0,049995  	0,217958  	0,110441  	-4,605999  	5018,038829  	75800,656010  	10,993956  	-0,047947  
219,557000  	23,094921  	31,113674  	24,851436  	1256,670793  	79,984217  	70,031974  	0,007475  	0,006331  	0,003957  	0,004300  	0,004216  	0,000001  	-0,000000  	26,425419  	24,682204  	25,695549  	25,605925  	28,698914  	27,502815  	28,960243  	28,632621  	31,497154  	31,055347  	34,359617  	62,734529  	27,075478  	26,126274  	28,031518  	68,620812  	0,249538  	0,126443  	-4239,207745  	25536,401919  	-0,018526  	-0,049992  	0,196996  	0,099819  	-4,162389  	5001,711680  	75806,940383  	10,994867  	-0,047945  
220,555000  	23,082022  	31,118784  	24,850637  	57,696365  	79,989591  	70,014968  	0,007465  	0,006337  	0,003964  	0,004285  	0,004266  	0,000000  	-0,000000  	26,421587  	24,681134  	25,685507  	25,597856  	28,698168  	27,500441  	28,957137  	28,629907  	31,498336  	31,049630  	34,355978  	62,729507  	27,073619  	26,122497  	28,027361  	68,618342  	0,237237  	0,120210  	-4039,291997  	1779,377328  	-0,053854  	-0,049999  	0,237178  	0,120180  	-5,022671  	5016,025437  	75574,390336  	10,961139  	-0,047950  
221,556000  	23,024718  	31,118260  	24,850729  	57,696365  	79,991871  	70,007867  	0,007471  	0,006343  	0,003963  	0,004268  	0,004279  	-0,000001  	-0,000000  	26,419337  	24,684861  	25,683943  	25,595203  	28,696249  	27,501655  	28,953965  	28,626389  	31,500733  	31,049652  	34,350169  	62,726877  	27,070504  	26,125333  	28,031434  	68,620489  	0,223812  	0,113407  	-3837,642082  	1779,822815  	-0,053868  	-0,050013  	0,246996  	0,125155  	-5,235498  	5028,505495  	75702,598607  	10,979734  	-0,047962  
222,554000  	22,967169  	31,115367  	24,849562  	657,183579  	79,995370  	70,004191  	0,007471  	0,006344  	0,003961  	0,004324  	0,004162  	0,000001  	-0,000000  	26,428218  	24,689437  	25,694317  	25,604140  	28,702843  	27,506661  	28,957309  	28,634748  	31,500266  	31,058432  	34,359830  	62,736137  	27,072386  	26,148341  	28,037731  	68,628015  	0,269312  	0,136462  	-4649,020449  	18456,801329  	-0,027567  	-0,049991  	0,154913  	0,078496  	-3,286008  	5030,149600  	75719,135688  	10,982132  	-0,047944  
223,557000  	22,945519  	31,109641  	24,848087  	657,183579  	79,996151  	70,000142  	0,007465  	0,006339  	0,003963  	0,004257  	0,004281  	0,000001  	-0,000000  	26,436496  	24,690723  	25,698637  	25,617322  	28,706884  	27,508496  	28,961633  	28,645640  	31,509001  	31,062309  	34,366169  	62,745762  	27,078170  	26,171162  	28,042526  	68,634437  	0,214756  	0,108819  	-3714,503818  	18454,505142  	-0,027563  	-0,049984  	0,248432  	0,125882  	-5,272261  	5019,451599  	75590,673217  	10,963500  	-0,047938  
224,554000  	22,948590  	31,096528  	24,845936  	1256,670793  	79,994152  	70,003381  	0,007466  	0,006331  	0,003962  	0,004327  	0,004263  	-0,000000  	-0,000000  	26,434525  	24,689801  	25,701771  	25,619385  	28,708059  	27,507263  	28,968822  	28,646411  	31,511732  	31,064747  	34,364007  	62,742332  	27,084594  	26,178531  	28,046514  	68,631245  	0,271967  	0,137808  	-4694,711876  	25542,630578  	-0,018530  	-0,050005  	0,234575  	0,118861  	-4,975592  	5001,788084  	75613,049822  	10,966746  	-0,047956  
225,555000  	23,010530  	31,071163  	24,845813  	57,696365  	79,991090  	70,011791  	0,007474  	0,006334  	0,003958  	0,004281  	0,004237  	0,000001  	-0,000000  	26,421747  	24,682429  	25,696254  	25,606593  	28,703690  	27,499855  	28,963740  	28,637627  	31,498901  	31,059424  	34,357781  	62,729957  	27,081060  	26,171289  	28,030288  	68,614645  	0,234411  	0,118778  	-4003,049269  	1779,262373  	-0,053842  	-0,049986  	0,213587  	0,108226  	-4,525214  	5008,712567  	75768,655135  	10,989314  	-0,047940  
226,555000  	23,053094  	31,049862  	24,844400  	1256,670793  	79,987466  	70,005562  	0,007468  	0,006252  	0,003964  	0,004252  	0,004246  	0,000001  	-0,000000  	26,421503  	24,683218  	25,690782  	25,603997  	28,696320  	27,502778  	28,954158  	28,630919  	31,501014  	31,049943  	34,356610  	62,732324  	27,073177  	26,166644  	28,018879  	68,615002  	0,211043  	0,106937  	-3575,420164  	25535,341324  	-0,018525  	-0,049989  	0,220927  	0,111945  	-4,681929  	4832,801131  	75648,242311  	10,971850  	-0,047942  
227,556000  	23,078706  	31,037673  	24,843202  	357,439972  	79,984811  	70,009486  	0,007467  	0,006287  	0,003957  	0,004277  	0,004247  	-0,000000  	-0,000000  	26,430908  	24,681804  	25,694587  	25,601947  	28,695149  	27,497833  	28,952823  	28,629574  	31,505147  	31,052389  	34,360729  	62,735466  	27,078751  	26,171301  	28,029867  	68,626029  	0,230978  	0,117038  	-3894,646060  	12504,971709  	-0,036475  	-0,050006  	0,222019  	0,112499  	-4,701978  	4908,381140  	75629,572780  	10,969142  	-0,047957  
228,556000  	23,110214  	31,039150  	24,842464  	956,927186  	79,984498  	69,994224  	0,007475  	0,006231  	0,003958  	0,004331  	0,004204  	-0,000001  	-0,000000  	26,427305  	24,676700  	25,693197  	25,599506  	28,696963  	27,495227  	28,952096  	28,635911  	31,502719  	31,051556  	34,364564  	62,735677  	27,078028  	26,170798  	28,036872  	68,626937  	0,274889  	0,139288  	-4617,559839  	22493,105539  	-0,022166  	-0,050008  	0,187614  	0,095066  	-3,979294  	4786,374978  	75802,329489  	10,994198  	-0,047958  
229,557000  	23,128548  	31,049801  	24,841389  	1256,670793  	79,985060  	69,968248  	0,007469  	0,006292  	0,003963  	0,004239  	0,004208  	-0,000001  	-0,000000  	26,419473  	24,676617  	25,691444  	25,593382  	28,694038  	27,500189  	28,952519  	28,632527  	31,497473  	31,050207  	34,353236  	62,733294  	27,080057  	26,172884  	28,034023  	68,617161  	0,200351  	0,101519  	-3362,215058  	25543,980601  	-0,018531  	-0,050008  	0,191184  	0,096874  	-4,065772  	4917,841110  	75680,031353  	10,976461  	-0,047958  
230,556000  	23,146729  	31,058912  	24,841389  	1256,670793  	79,982811  	69,951616  	0,007461  	0,006343  	0,003958  	0,004329  	0,004219  	-0,000000  	-0,000000  	26,424947  	24,685792  	25,695479  	25,601033  	28,696370  	27,498883  	28,957870  	28,626731  	31,506328  	31,051617  	34,356858  	62,732218  	27,073943  	26,184054  	28,025449  	68,617341  	0,273438  	0,138553  	-4583,476996  	25542,132737  	-0,018530  	-0,050004  	0,199588  	0,101133  	-4,250575  	5027,917607  	75491,959133  	10,949183  	-0,047955  
231,558000  	23,158061  	31,071471  	24,841665  	357,439972  	79,981999  	69,941058  	0,007469  	0,006321  	0,003957  	0,004285  	0,004277  	-0,000001  	-0,000000  	26,423284  	24,684319  	25,697587  	25,600209  	28,705341  	27,492830  	28,962691  	28,639591  	31,504738  	31,056466  	34,362625  	62,735586  	27,080743  	26,186105  	28,030891  	68,624518  	0,237188  	0,120185  	-3976,451589  	12505,926599  	-0,036478  	-0,050010  	0,245833  	0,124566  	-5,240525  	4979,918801  	75675,194504  	10,975759  	-0,047960  
232,555000  	23,140679  	31,075904  	24,840621  	956,927186  	79,981436  	69,934143  	0,007469  	0,006341  	0,003959  	0,004297  	0,004209  	0,000000  	-0,000000  	26,423615  	24,685741  	25,703441  	25,608903  	28,699428  	27,507981  	28,964694  	28,635498  	31,509955  	31,056878  	34,363634  	62,745455  	27,082791  	26,196781  	28,039764  	68,628820  	0,247310  	0,125314  	-4157,577550  	22487,997007  	-0,022161  	-0,049995  	0,191531  	0,097050  	-4,085510  	5024,376132  	75676,931533  	10,976011  	-0,047947  
233,557000  	23,137792  	31,086862  	24,841573  	57,696365  	79,982967  	69,947692  	0,007468  	0,006340  	0,003962  	0,004299  	0,004248  	0,000001  	-0,000000  	26,425751  	24,684419  	25,692860  	25,600128  	28,690981  	27,497394  	28,960951  	28,629322  	31,510215  	31,060652  	34,355061  	62,730616  	27,083625  	26,191929  	28,037735  	68,624697  	0,249023  	0,126182  	-4193,686257  	1779,590004  	-0,053845  	-0,049989  	0,222967  	0,112979  	-4,750405  	5021,619921  	75649,788690  	10,972074  	-0,047942  
234,554000  	23,113900  	31,104408  	24,841450  	1256,670793  	79,986529  	69,964635  	0,007467  	0,006325  	0,003957  	0,004308  	0,004251  	0,000001  	-0,000000  	26,413170  	24,680456  	25,695440  	25,590094  	28,693334  	27,504708  	28,959652  	28,630351  	31,493194  	31,062118  	34,354608  	62,739213  	27,081621  	26,190808  	28,038163  	68,627907  	0,256102  	0,129769  	-4335,385705  	25536,531047  	-0,018526  	-0,049992  	0,225063  	0,114041  	-4,788667  	4988,928128  	75622,285732  	10,968085  	-0,047944  
235,557000  	23,099711  	31,121862  	24,842556  	1256,670793  	79,986498  	69,965507  	0,007471  	0,006274  	0,003956  	0,004283  	0,004227  	0,000000  	-0,000000  	26,418365  	24,688889  	25,696271  	25,595305  	28,693243  	27,497471  	28,957250  	28,630030  	31,494479  	31,051936  	34,348460  	62,733632  	27,092466  	26,184613  	28,033818  	68,615394  	0,235630  	0,119396  	-4004,630836  	25539,070606  	-0,018528  	-0,049997  	0,206018  	0,104391  	-4,383063  	4878,710849  	75705,726672  	10,980187  	-0,047949  
236,554000  	23,115865  	31,133929  	24,842556  	57,696365  	79,979374  	69,981641  	0,007471  	0,006230  	0,003961  	0,004263  	0,004221  	0,000001  	-0,000000  	26,432761  	24,672299  	25,702897  	25,599940  	28,689480  	27,497493  	28,955949  	28,626929  	31,497768  	31,054786  	34,351822  	62,743602  	27,083255  	26,173182  	28,038305  	68,625135  	0,219551  	0,111248  	-3729,446242  	1779,371303  	-0,053840  	-0,049984  	0,201497  	0,102100  	-4,276927  	4783,732667  	75710,987186  	10,980950  	-0,047938  
237,556000  	23,091942  	31,133251  	24,842526  	956,927186  	79,976094  	69,983323  	0,007468  	0,006339  	0,003957  	0,004286  	0,004246  	0,000000  	-0,000000  	26,414181  	24,672138  	25,682895  	25,584307  	28,673542  	27,486166  	28,940143  	28,613767  	31,479635  	31,041270  	34,333699  	62,718887  	27,083332  	26,156209  	28,025833  	68,610747  	0,238526  	0,120863  	-4063,535997  	22489,819310  	-0,022163  	-0,050000  	0,221296  	0,112132  	-4,694853  	5020,459710  	75654,851494  	10,972809  	-0,047951  
238,554000  	23,068295  	31,123586  	24,842464  	357,439972  	79,982405  	69,966566  	0,007476  	0,006273  	0,003957  	0,004297  	0,004216  	-0,000000  	-0,000000  	26,411644  	24,686542  	25,685413  	25,595733  	28,688172  	27,493629  	28,948827  	28,639965  	31,502277  	31,049592  	34,341230  	62,730775  	27,095592  	26,157678  	28,038762  	68,623511  	0,247526  	0,125423  	-4224,186418  	12504,710986  	-0,036475  	-0,050005  	0,197390  	0,100019  	-4,197332  	4876,597000  	75810,322647  	10,995358  	-0,047955  
239,555000  	23,062767  	31,117398  	24,842556  	1256,670793  	79,988466  	69,957845  	0,007474  	0,006317  	0,003957  	0,004242  	0,004220  	-0,000000  	-0,000000  	26,417395  	24,677710  	25,687942  	25,600973  	28,690749  	27,490592  	28,951034  	28,621881  	31,495769  	31,045503  	34,339272  	62,733698  	27,097516  	26,141493  	28,025863  	68,612137  	0,202810  	0,102765  	-3460,801556  	25540,546276  	-0,018529  	-0,050001  	0,200872  	0,101783  	-4,277667  	4972,266356  	75769,036434  	10,989370  	-0,047952  
240,558000  	23,066268  	31,103731  	24,843171  	1256,670793  	79,995277  	69,959777  	0,007470  	0,006334  	0,003960  	0,004314  	0,004229  	0,000001  	-0,000000  	26,435436  	24,678763  	25,695576  	25,594518  	28,696228  	27,496760  	28,952817  	28,631590  	31,500573  	31,055556  	34,349186  	62,737035  	27,105583  	26,128481  	28,025533  	68,622061  	0,261271  	0,132388  	-4448,897299  	25533,091904  	-0,018523  	-0,049984  	0,207821  	0,105304  	-4,427803  	5008,001583  	75700,204897  	10,979386  	-0,047938  
241,555000  	23,100940  	31,090125  	24,842710  	1256,670793  	80,001056  	69,942210  	0,007469  	0,006325  	0,003961  	0,004277  	0,004249  	-0,000002  	-0,000000  	26,424559  	24,675805  	25,684669  	25,590876  	28,694500  	27,490230  	28,948806  	28,625163  	31,493944  	31,052988  	34,346374  	62,731460  	27,108930  	26,121407  	28,027322  	68,617632  	0,231302  	0,117202  	-3914,913445  	25549,174619  	-0,018535  	-0,050020  	0,223486  	0,113242  	-4,772631  	4989,782723  	75660,020215  	10,973558  	-0,047968  
242,556000  	23,130667  	31,082861  	24,843324  	657,183579  	80,004931  	69,939282  	0,007471  	0,006268  	0,003962  	0,004283  	0,004205  	0,000001  	-0,000000  	26,428072  	24,675448  	25,688081  	25,598549  	28,699116  	27,496224  	28,954847  	28,633752  	31,496238  	31,046641  	34,346737  	62,732301  	27,126367  	26,126861  	28,030116  	68,621803  	0,236209  	0,119689  	-3979,457857  	18456,010752  	-0,027566  	-0,049988  	0,188698  	0,095615  	-4,032438  	4866,776940  	75718,909733  	10,982099  	-0,047941  
243,554000  	23,132879  	31,080460  	24,843048  	657,183579  	80,005243  	69,965943  	0,007469  	0,006314  	0,003962  	0,004241  	0,004274  	0,000001  	-0,000000  	26,431232  	24,683707  	25,695893  	25,603706  	28,697914  	27,503265  	28,957052  	28,644936  	31,503356  	31,044268  	34,350448  	62,739151  	27,135278  	26,137485  	28,031007  	68,626735  	0,201877  	0,102292  	-3399,075255  	18457,556821  	-0,027568  	-0,049993  	0,243358  	0,123312  	-5,186936  	4965,645368  	75662,632819  	10,973937  	-0,047945  
244,557000  	23,126122  	31,088340  	24,842987  	1256,670793  	80,003556  	69,977032  	0,007467  	0,006343  	0,003960  	0,004297  	0,004216  	0,000001  	-0,000000  	26,431292  	24,692700  	25,694699  	25,608191  	28,701798  	27,504650  	28,961230  	28,646907  	31,503195  	31,052400  	34,360535  	62,735626  	27,147644  	26,147945  	28,040344  	68,623789  	0,247367  	0,125343  	-4172,683164  	25532,540528  	-0,018523  	-0,049983  	0,197562  	0,100106  	-4,205488  	5029,056595  	75620,894697  	10,967883  	-0,047937  
245,555000  	23,137823  	31,104316  	24,843355  	57,696365  	80,002556  	69,966940  	0,007472  	0,006337  	0,003964  	0,004285  	0,004252  	0,000001  	-0,000000  	26,427794  	24,683798  	25,686953  	25,611483  	28,701605  	27,503117  	28,955949  	28,640921  	31,496125  	31,048629  	34,352370  	62,732892  	27,142766  	26,157495  	28,036463  	68,620119  	0,237699  	0,120444  	-4011,744500  	1779,632827  	-0,053850  	-0,049994  	0,225688  	0,114358  	-4,808546  	5014,578710  	75727,241823  	10,983308  	-0,047946  
246,555000  	23,130452  	31,112504  	24,844154  	657,183579  	80,004306  	69,955478  	0,007470  	0,006340  	0,003959  	0,004268  	0,004292  	0,000002  	-0,000000  	26,429361  	24,686420  	25,692657  	25,612853  	28,705215  	27,507057  	28,961998  	28,634785  	31,500862  	31,051570  	34,352013  	62,734946  	27,138797  	26,182793  	28,039288  	68,616348  	0,223882  	0,113443  	-3785,941759  	18453,551682  	-0,027562  	-0,049981  	0,257268  	0,130360  	-5,488601  	5022,195783  	75696,603739  	10,978864  	-0,047935  
247,555000  	23,103274  	31,113058  	24,844431  	-242,047242  	80,009429  	69,968155  	0,007469  	0,006325  	0,003959  	0,004298  	0,004227  	-0,000000  	-0,000000  	26,430928  	24,693047  	25,696152  	25,613803  	28,703496  	27,505023  	28,961437  	28,633902  	31,505438  	31,054222  	34,354761  	62,734977  	27,138672  	26,208261  	28,039945  	68,619684  	0,247996  	0,125662  	-4208,302018  	-27072,714591  	-0,102912  	-0,050002  	0,206131  	0,104448  	-4,394329  	4989,935531  	75666,982453  	10,974568  	-0,047953  
248,557000  	23,068694  	31,119892  	24,845414  	956,927186  	80,013553  	69,980613  	0,007465  	0,006331  	0,003958  	0,004252  	0,004199  	-0,000001  	-0,000000  	26,426787  	24,687903  	25,691583  	25,612664  	28,699712  	27,497463  	28,950909  	28,631222  	31,502985  	31,051657  	34,348858  	62,732632  	27,127978  	26,221777  	28,030805  	68,617342  	0,211037  	0,106934  	-3599,652334  	22494,998111  	-0,022168  	-0,050013  	0,183668  	0,093066  	-3,912225  	5003,043093  	75588,456034  	10,963179  	-0,047963  
249,554000  	23,018392  	31,131774  	24,845905  	-242,047242  	80,019333  	69,991857  	0,007479  	0,006331  	0,003958  	0,004292  	0,004210  	0,000000  	-0,000000  	26,424607  	24,687601  	25,694965  	25,608716  	28,703259  	27,498414  	28,954442  	28,632498  	31,504890  	31,051738  	34,349924  	62,729615  	27,117275  	26,231680  	28,027177  	68,615458  	0,243572  	0,123420  	-4186,697629  	-27070,566516  	-0,102903  	-0,049997  	0,192786  	0,097686  	-4,104223  	5002,713423  	75875,136422  	11,004758  	-0,047949  
250,562000  	23,023182  	31,131035  	24,845844  	357,439972  	80,023207  	70,005624  	0,007465  	0,006347  	0,003960  	0,004291  	0,004249  	-0,000001  	-0,000000  	26,429630  	24,693020  	25,700720  	25,609621  	28,706369  	27,505641  	28,961824  	28,638697  	31,506286  	31,054253  	34,355317  	62,731837  	27,115393  	26,243823  	28,030321  	68,622333  	0,242658  	0,122957  	-4168,148861  	12505,149110  	-0,036476  	-0,050007  	0,223801  	0,113402  	-4,759803  	5037,578492  	75581,140741  	10,962118  	-0,047958  
251,555000  	23,057546  	31,120784  	24,845199  	357,439972  	80,028862  	70,013193  	0,007472  	0,006338  	0,003958  	0,004320  	0,004199  	-0,000001  	-0,000000  	26,431562  	24,688449  	25,696543  	25,612387  	28,706919  	27,506135  	28,959809  	28,634945  	31,499023  	31,058188  	34,351427  	62,737115  	27,113327  	26,253560  	28,031292  	68,620028  	0,265495  	0,134528  	-4535,323553  	12505,836037  	-0,036478  	-0,050010  	0,184065  	0,093267  	-3,913949  	5018,005579  	75728,830569  	10,983538  	-0,047960  
252,557000  	23,093354  	31,100653  	24,845076  	956,927186  	80,034236  	70,005967  	0,007475  	0,006330  	0,003962  	0,004251  	0,004238  	0,000000  	-0,000000  	26,425896  	24,685284  	25,691670  	25,607293  	28,704709  	27,501506  	28,954377  	28,633175  	31,494104  	31,053414  	34,347255  	62,734962  	27,105296  	26,255770  	28,027463  	68,623680  	0,209942  	0,106379  	-3561,437287  	22488,207116  	-0,022161  	-0,049996  	0,214591  	0,108735  	-4,568780  	4999,786719  	75807,364049  	10,994929  	-0,047948  
253,555000  	23,115926  	31,082214  	24,845875  	956,927186  	80,032111  	70,009081  	0,007470  	0,006333  	0,003959  	0,004261  	0,004304  	-0,000001  	-0,000000  	26,429325  	24,694256  	25,697691  	25,606269  	28,702263  	27,504038  	28,951813  	28,635180  	31,496267  	31,048836  	34,356104  	62,731469  	27,094555  	26,261341  	28,031415  	68,629757  	0,217941  	0,110432  	-3678,191549  	22493,971607  	-0,022167  	-0,050010  	0,266686  	0,135132  	-5,674963  	5005,889857  	75688,314016  	10,977662  	-0,047960  
254,558000  	23,100018  	31,081906  	24,846919  	357,439972  	80,027675  	70,007275  	0,007471  	0,006327  	0,003956  	0,004315  	0,004197  	0,000000  	-0,000000  	26,430234  	24,679440  	25,694542  	25,602787  	28,695812  	27,499092  	28,952830  	28,626246  	31,488679  	31,041409  	34,353773  	62,725147  	27,079390  	26,255786  	28,026034  	68,621403  	0,261813  	0,132663  	-4427,290621  	12502,682693  	-0,036469  	-0,049997  	0,182481  	0,092464  	-3,882091  	4992,809177  	75715,379186  	10,981587  	-0,047949  
255,555000  	23,085185  	31,089202  	24,846643  	357,439972  	80,028706  	70,013566  	0,007466  	0,006342  	0,003958  	0,004255  	0,004231  	0,000001  	-0,000001  	26,433162  	24,683637  	25,691546  	25,597726  	28,702277  	27,506362  	28,959787  	28,639341  	31,502527  	31,042557  	34,355632  	62,733177  	27,075516  	26,267040  	28,030223  	68,630029  	0,213535  	0,108200  	-3620,906392  	12500,523741  	-0,036463  	-0,049987  	0,209407  	0,106108  	-4,452578  	5026,242375  	75600,516381  	10,964928  	-0,047940  
256,555000  	23,063320  	31,105332  	24,847134  	956,927186  	80,029143  	70,019609  	0,007472  	0,006339  	0,003959  	0,004265  	0,004244  	0,000002  	-0,000000  	26,433272  	24,688769  	25,694798  	25,605330  	28,701768  	27,505442  	28,958059  	28,637397  	31,499121  	31,050599  	34,350421  	62,732550  	27,080251  	26,279704  	28,030427  	68,627828  	0,221693  	0,112333  	-3777,090728  	22478,748991  	-0,022152  	-0,049973  	0,219314  	0,111128  	-4,660635  	5020,715805  	75743,665926  	10,985690  	-0,047928  
257,558000  	23,004050  	31,113027  	24,847903  	956,927186  	80,027175  	70,018145  	0,007468  	0,006336  	0,003960  	0,004278  	0,004241  	0,000000  	-0,000000  	26,441861  	24,691418  	25,709666  	25,610822  	28,708044  	27,503611  	28,967620  	28,640336  	31,509754  	31,059503  	34,348055  	62,739271  	27,081019  	26,290313  	28,036355  	68,638971  	0,232045  	0,117579  	-3986,415001  	22487,864421  	-0,022161  	-0,049995  	0,216975  	0,109943  	-4,610700  	5013,028696  	75639,627777  	10,970600  	-0,047948  
258,556000  	23,009578  	31,105393  	24,847841  	-242,047242  	80,025363  	70,024499  	0,007472  	0,006329  	0,003957  	0,004277  	0,004208  	0,000001  	-0,000000  	26,436393  	24,697090  	25,701399  	25,614837  	28,704159  	27,510630  	28,962146  	28,638620  	31,502450  	31,056837  	34,356631  	62,731753  	27,083318  	26,286809  	28,037843  	68,633757  	0,230963  	0,117031  	-3961,374240  	-27067,976010  	-0,102892  	-0,049992  	0,190798  	0,096679  	-4,051120  	4997,080030  	75724,459752  	10,982904  	-0,047945  
259,660000  	23,018975  	31,104193  	24,848671  	-242,047242  	80,028862  	70,030728  	0,007475  	0,006330  	0,003961  	0,004269  	0,004232  	0,000001  	-0,000000  	26,437834  	24,691520  	25,697050  	25,611898  	28,705485  	27,506492  	28,960919  	28,637050  	31,517289  	31,060592  	34,354155  	62,736383  	27,084554  	26,289327  	28,034800  	68,624849  	0,224791  	0,113903  	-3850,470590  	-27064,466446  	-0,102879  	-0,049985  	0,210059  	0,106439  	-4,458885  	5001,348760  	75806,686184  	10,994830  	-0,047938  
260,555000  	23,052756  	31,089971  	24,849900  	-242,047242  	80,032361  	70,034030  	0,007466  	0,006267  	0,003955  	0,004292  	0,004244  	0,000001  	-0,000000  	26,437207  	24,695765  	25,702629  	25,620797  	28,704870  	27,504098  	28,957205  	28,637980  	31,506992  	31,062620  	34,354801  	62,728192  	27,078133  	26,293296  	28,037438  	68,637947  	0,242867  	0,123063  	-4135,391863  	-27067,134599  	-0,102888  	-0,049990  	0,219663  	0,111305  	-4,662839  	4864,919894  	75598,066182  	10,964572  	-0,047943  
261,558000  	23,090959  	31,076581  	24,849623  	1256,670793  	80,029331  	70,038702  	0,007464  	0,006228  	0,003961  	0,004287  	0,004199  	0,000000  	-0,000000  	26,437924  	24,692329  	25,698695  	25,612714  	28,708073  	27,496990  	28,959068  	28,638425  	31,506748  	31,048156  	34,352209  	62,720043  	27,072530  	26,294139  	28,027009  	68,636976  	0,238754  	0,120979  	-4039,252008  	25539,870206  	-0,018528  	-0,050000  	0,183653  	0,093059  	-3,895451  	4779,475256  	75556,674053  	10,958569  	-0,047951  
262,656000  	23,100233  	31,075104  	24,848886  	1256,670793  	80,026269  	70,025309  	0,007472  	0,006252  	0,003960  	0,004265  	0,004238  	-0,000000  	-0,000000  	26,434053  	24,690446  	25,691159  	25,604071  	28,710488  	27,501739  	28,960281  	28,640619  	31,511357  	31,059813  	34,355586  	62,730674  	27,065764  	26,313023  	28,036810  	68,637488  	0,220942  	0,111953  	-3732,871185  	25541,586720  	-0,018530  	-0,050003  	0,214422  	0,108649  	-4,552777  	4831,402510  	75742,500846  	10,985521  	-0,047954  
263,555000  	23,109170  	31,074642  	24,849992  	1256,670793  	80,025332  	70,003444  	0,007473  	0,006238  	0,003963  	0,004278  	0,004248  	0,000000  	-0,000000  	26,426684  	24,698856  	25,696592  	25,605641  	28,709552  	27,511038  	28,969420  	28,647711  	31,511992  	31,052935  	34,353154  	62,736020  	27,074964  	26,331564  	28,030398  	68,645495  	0,232195  	0,117655  	-3918,359674  	25537,956173  	-0,018527  	-0,049995  	0,222759  	0,112874  	-4,739668  	4801,185363  	75764,905695  	10,988771  	-0,047948  
264,557000  	23,093938  	31,079629  	24,850115  	1256,670793  	80,024957  	69,983572  	0,007471  	0,006239  	0,003963  	0,004283  	0,004201  	0,000001  	-0,000000  	26,436158  	24,700979  	25,704564  	25,621395  	28,711452  	27,518071  	28,976646  	28,647477  	31,516436  	31,060738  	34,357078  	62,746434  	27,082193  	26,346410  	28,032966  	68,652812  	0,235521  	0,119340  	-3984,579872  	25535,416081  	-0,018525  	-0,049990  	0,185216  	0,093851  	-3,948529  	4804,353307  	75720,004202  	10,982258  	-0,047943  
265,555000  	23,025271  	31,082891  	24,850238  	-242,047242  	80,022989  	69,961085  	0,007468  	0,006297  	0,003960  	0,004296  	0,004233  	0,000000  	-0,000000  	26,425945  	24,688009  	25,701236  	25,607361  	28,702175  	27,504058  	28,961328  	28,631442  	31,502315  	31,045813  	34,354548  	62,736661  	27,060999  	26,343556  	28,025839  	68,639965  	0,246701  	0,125005  	-4211,342726  	-27071,185847  	-0,102903  	-0,049999  	0,210737  	0,106782  	-4,501762  	4928,984094  	75652,556639  	10,972476  	-0,047950  
266,557000  	22,977118  	31,086401  	24,850668  	357,439972  	80,016365  	69,945200  	0,007478  	0,006308  	0,003960  	0,004254  	0,004245  	-0,000001  	-0,000000  	26,432706  	24,695409  	25,703594  	25,613186  	28,711624  	27,504848  	28,955793  	28,641149  	31,504513  	31,049957  	34,351193  	62,735056  	27,066903  	26,353150  	28,030633  	68,649861  	0,212678  	0,107765  	-3653,828674  	12504,652528  	-0,036475  	-0,050006  	0,220037  	0,111494  	-4,704738  	4952,153663  	75866,663110  	11,003529  	-0,047957  
267,555000  	22,967169  	31,080767  	24,850852  	1256,670793  	80,009898  	69,925952  	0,007472  	0,006341  	0,003961  	0,004290  	0,004242  	0,000002  	-0,000000  	26,436814  	24,701157  	25,706558  	25,608996  	28,718000  	27,511815  	28,957391  	28,648767  	31,511230  	31,054613  	34,358976  	62,737362  	27,069039  	26,355380  	28,028306  	68,640700  	0,241260  	0,122248  	-4147,087763  	25530,561238  	-0,018522  	-0,049979  	0,217875  	0,110399  	-4,664406  	5023,936100  	75744,054286  	10,985746  	-0,047934  
268,556000  	22,964098  	31,061806  	24,851651  	1256,670793  	80,006336  	69,925703  	0,007468  	0,006348  	0,003963  	0,004273  	0,004212  	0,000000  	-0,000000  	26,434204  	24,685198  	25,708948  	25,602534  	28,710399  	27,499100  	28,966148  	28,644419  	31,507224  	31,051926  	34,356391  	62,733859  	27,073730  	26,363392  	28,032386  	68,633925  	0,228165  	0,115613  	-3914,308834  	25539,495877  	-0,018528  	-0,049999  	0,194285  	0,098446  	-4,158017  	5039,688096  	75651,645758  	10,972344  	-0,047951  
269,555000  	22,994070  	31,035149  	24,850944  	57,696365  	80,003337  	69,943238  	0,007475  	0,006324  	0,003954  	0,004295  	0,004258  	0,000001  	-0,000000  	26,429783  	24,684508  	25,702670  	25,607975  	28,703835  	27,498688  	28,958145  	28,641202  	31,505419  	31,050799  	34,357300  	62,732534  	27,072159  	26,371881  	28,028975  	68,632343  	0,245925  	0,124612  	-4189,489789  	1779,184334  	-0,053849  	-0,049993  	0,230227  	0,116658  	-4,917199  	4987,135459  	75792,246248  	10,992736  	-0,047945  
270,557000  	23,011267  	31,017911  	24,850699  	1256,670793  	79,997839  	69,947474  	0,007468  	0,006234  	0,003957  	0,004316  	0,004243  	-0,000001  	-0,000000  	26,433013  	24,690253  	25,703181  	25,606273  	28,703903  	27,503977  	28,959087  	28,642447  	31,505413  	31,054683  	34,353828  	62,735515  	27,067705  	26,382905  	28,027543  	68,639259  	0,262788  	0,133157  	-4457,587106  	25546,334587  	-0,018533  	-0,050014  	0,218952  	0,110945  	-4,671872  	4793,574658  	75652,930877  	10,972530  	-0,047963  
271,554000  	23,001686  	31,005999  	24,850791  	357,439972  	79,995152  	69,964698  	0,007468  	0,006321  	0,003961  	0,004285  	0,004201  	0,000001  	-0,000000  	26,435087  	24,692303  	25,709061  	25,611877  	28,714318  	27,508976  	28,960880  	28,645774  	31,509721  	31,065488  	34,356456  	62,745869  	27,074136  	26,399872  	28,032202  	68,646105  	0,237636  	0,120412  	-4029,767051  	12500,723009  	-0,036464  	-0,049989  	0,185372  	0,093929  	-3,947534  	4980,445849  	75641,569578  	10,970882  	-0,047942  
272,557000  	22,993701  	31,010616  	24,851835  	956,927186  	79,995089  	69,957409  	0,007467  	0,006348  	0,003959  	0,004267  	0,004280  	-0,000001  	-0,000000  	26,431423  	24,687728  	25,704464  	25,609124  	28,708833  	27,505407  	28,958419  	28,638081  	31,508817  	31,056511  	34,354392  	62,741028  	27,071615  	26,405790  	28,030880  	68,639337  	0,223001  	0,112996  	-3787,539556  	22492,296613  	-0,022166  	-0,050007  	0,247985  	0,125656  	-5,284686  	5040,022718  	75633,089205  	10,969652  	-0,047957  
273,556000  	23,026161  	31,026037  	24,852542  	1256,670793  	79,998588  	69,941120  	0,007472  	0,006341  	0,003959  	0,004242  	0,004256  	0,000000  	-0,000000  	26,427123  	24,685563  	25,696048  	25,604727  	28,695145  	27,497651  	28,951943  	28,628327  	31,505234  	31,042320  	34,343817  	62,731159  	27,064393  	26,397632  	28,027178  	68,631642  	0,202402  	0,102559  	-3430,367148  	25537,750077  	-0,018527  	-0,049995  	0,228985  	0,116028  	-4,889388  	5023,272516  	75739,514003  	10,985088  	-0,047947  
274,560000  	23,041454  	31,026961  	24,853587  	1256,670793  	80,005087  	69,948221  	0,007471  	0,006337  	0,003957  	0,004315  	0,004247  	-0,000001  	-0,000000  	26,424253  	24,684459  	25,695272  	25,603620  	28,694150  	27,496109  	28,952057  	28,626009  	31,504682  	31,044961  	34,342595  	62,734374  	27,067031  	26,381032  	28,024956  	68,631950  	0,261531  	0,132520  	-4424,541228  	25542,823947  	-0,018531  	-0,050006  	0,221670  	0,112322  	-4,732917  	5015,937714  	75723,301733  	10,982736  	-0,047957  
275,554000  	23,044034  	31,026130  	24,853771  	1256,670793  	80,014709  	69,950838  	0,007468  	0,006345  	0,003959  	0,004279  	0,004210  	0,000001  	-0,000000  	26,419636  	24,678700  	25,693741  	25,598215  	28,695253  	27,495583  	28,955798  	28,622551  	31,499721  	31,044474  	34,343474  	62,731720  	27,069288  	26,366419  	28,020661  	68,629811  	0,232968  	0,118046  	-3939,623485  	25537,016370  	-0,018526  	-0,049994  	0,192957  	0,097773  	-4,122736  	5032,010890  	75649,322658  	10,972007  	-0,047946  
276,556000  	23,052080  	31,033640  	24,854570  	1256,670793  	80,021333  	69,969338  	0,007480  	0,006343  	0,003959  	0,004310  	0,004268  	0,000001  	-0,000000  	26,418346  	24,676596  	25,692108  	25,599257  	28,690977  	27,496026  	28,956956  	28,624454  	31,495749  	31,040226  	34,344148  	62,727699  	27,069524  	26,360519  	28,025018  	68,627247  	0,257595  	0,130525  	-4355,791341  	25535,305360  	-0,018525  	-0,049990  	0,238704  	0,120953  	-5,094176  	5028,590388  	75905,760384  	11,009200  	-0,047943  
277,554000  	23,071673  	31,038750  	24,856045  	1256,670793  	80,028925  	69,982015  	0,007467  	0,006338  	0,003956  	0,004348  	0,004228  	0,000001  	-0,000000  	26,424863  	24,683068  	25,696045  	25,598906  	28,693137  	27,499746  	28,960286  	28,626697  	31,500325  	31,046152  	34,349463  	62,737082  	27,072666  	26,351444  	28,033650  	68,630463  	0,288501  	0,146186  	-4869,537522  	25533,780048  	-0,018524  	-0,049987  	0,207131  	0,104955  	-4,418152  	5018,412361  	75628,880793  	10,969042  	-0,047940  
278,560000  	23,101769  	31,046015  	24,856352  	1256,670793  	80,034423  	69,977218  	0,007471  	0,006350  	0,003957  	0,004256  	0,004214  	0,000001  	-0,000000  	26,428412  	24,688468  	25,692252  	25,592088  	28,699800  	27,500125  	28,953310  	28,618428  	31,500368  	31,044947  	34,343406  	62,738748  	27,073713  	26,332662  	28,031678  	68,629977  	0,214235  	0,108555  	-3605,654289  	25534,505107  	-0,018525  	-0,049988  	0,195935  	0,099282  	-4,183603  	5042,588625  	75720,823289  	10,982377  	-0,047941  
279,558000  	23,126276  	31,056727  	24,858288  	1256,670793  	80,039079  	69,987590  	0,007474  	0,006346  	0,003959  	0,004276  	0,004271  	0,000000  	-0,000000  	26,426698  	24,682857  	25,686208  	25,597542  	28,695124  	27,496757  	28,943144  	28,623801  	31,493512  	31,038566  	34,342763  	62,736835  	27,076390  	26,308498  	28,031556  	68,625855  	0,230546  	0,116819  	-3873,430783  	25538,700973  	-0,018528  	-0,049998  	0,240826  	0,122028  	-5,139215  	5035,190153  	75776,492949  	10,990451  	-0,047949  
280,555000  	23,145071  	31,066208  	24,858779  	1256,670793  	80,040766  	70,003849  	0,007469  	0,006345  	0,003958  	0,004300  	0,004233  	-0,000000  	-0,000000  	26,423971  	24,677689  	25,687746  	25,592330  	28,688438  	27,481992  	28,936894  	28,613695  	31,486459  	31,037565  	34,339811  	62,729312  	27,074854  	26,286172  	28,019589  	68,622965  	0,249801  	0,126576  	-4192,006324  	25539,956819  	-0,018529  	-0,050000  	0,210932  	0,106881  	-4,494767  	5032,682964  	75660,535674  	10,973633  	-0,047952  
281,554000  	23,138621  	31,082891  	24,858994  	956,927186  	80,038079  	70,012227  	0,007463  	0,006346  	0,003957  	0,004307  	0,004210  	0,000000  	-0,000000  	26,420979  	24,675773  	25,687932  	25,590146  	28,687042  	27,493041  	28,939038  	28,616427  	31,489028  	31,036529  	34,332239  	62,724765  	27,078252  	26,270838  	28,028402  	68,621630  	0,255566  	0,129497  	-4301,276688  	22487,430412  	-0,022161  	-0,049995  	0,192750  	0,097668  	-4,102802  	5034,196192  	75541,761024  	10,956406  	-0,047947  
282,558000  	23,103673  	31,099945  	24,859609  	357,439972  	80,036204  	70,018893  	0,007475  	0,006348  	0,003958  	0,004246  	0,004260  	0,000001  	-0,000000  	26,422695  	24,672139  	25,690790  	25,590164  	28,688789  	27,491000  	28,949207  	28,622072  	31,500600  	31,040144  	34,340765  	62,733521  	27,083043  	26,256354  	28,031533  	68,627472  	0,205633  	0,104196  	-3483,546551  	12500,572612  	-0,036464  	-0,049990  	0,232310  	0,117713  	-4,940644  	5039,383894  	75804,221862  	10,994473  	-0,047943  
283,554000  	23,054936  	31,116567  	24,860531  	357,439972  	80,036923  	70,021851  	0,007474  	0,006346  	0,003961  	0,004287  	0,004223  	0,000001  	-0,000000  	26,421958  	24,670099  	25,687156  	25,591648  	28,682076  	27,488248  	28,947176  	28,609152  	31,490962  	31,040519  	34,335761  	62,737466  	27,077066  	26,239562  	28,034669  	68,612443  	0,239360  	0,121286  	-4088,058298  	12499,564286  	-0,036461  	-0,049986  	0,202489  	0,102603  	-4,305468  	5034,474925  	75775,370235  	10,990288  	-0,047939  
284,558000  	23,019190  	31,126479  	24,862251  	956,927186  	80,039985  	70,024530  	0,007467  	0,006344  	0,003963  	0,004298  	0,004227  	-0,000001  	-0,000000  	26,414661  	24,675323  	25,691802  	25,593141  	28,678599  	27,484492  	28,938278  	28,614356  	31,482707  	31,043435  	34,329240  	62,725295  	27,075067  	26,224328  	28,027777  	68,621049  	0,247961  	0,125644  	-4258,942668  	22493,298740  	-0,022167  	-0,050010  	0,206149  	0,104457  	-4,383446  	5029,683393  	75635,482915  	10,969999  	-0,047960  
285,556000  	23,012065  	31,125340  	24,862927  	57,696365  	80,044577  	70,030043  	0,007470  	0,006328  	0,003965  	0,004235  	0,004213  	0,000001  	-0,000000  	26,407075  	24,675542  	25,693004  	25,584430  	28,684809  	27,491467  	28,939838  	28,609063  	31,486893  	31,030265  	34,335550  	62,728603  	27,082580  	26,207407  	28,026249  	68,622508  	0,196635  	0,099637  	-3379,877532  	1778,342354  	-0,053843  	-0,049988  	0,194630  	0,098621  	-4,138155  	4996,185818  	75700,197836  	10,979385  	-0,047941  
286,558000  	23,033378  	31,109333  	24,864218  	1256,670793  	80,046764  	70,023440  	0,007471  	0,006339  	0,003960  	0,004294  	0,004267  	-0,000001  	-0,000000  	26,420587  	24,667812  	25,689262  	25,597286  	28,694759  	27,493478  	28,949126  	28,627179  	31,489113  	31,041293  	34,339192  	62,732391  	27,083596  	26,196701  	28,044045  	68,616618  	0,245152  	0,124220  	-4194,413171  	25547,222271  	-0,018534  	-0,050017  	0,237498  	0,120342  	-5,054022  	5020,096082  	75705,853771  	10,980206  	-0,047966  
287,556000  	23,049961  	31,092711  	24,864679  	1256,670793  	80,046639  	70,025745  	0,007468  	0,006340  	0,003961  	0,004336  	0,004191  	0,000000  	-0,000000  	26,422301  	24,683141  	25,683996  	25,589254  	28,690197  	27,488977  	28,938197  	28,619629  	31,488691  	31,047292  	34,332104  	62,732839  	27,076920  	26,180343  	28,032545  	68,614603  	0,279022  	0,141382  	-4754,280561  	25536,915333  	-0,018526  	-0,049994  	0,177883  	0,090134  	-3,784466  	5021,472065  	75655,712948  	10,972933  	-0,047946  
288,557000  	23,049163  	31,081629  	24,865293  	1256,670793  	80,042953  	70,032909  	0,007470  	0,006342  	0,003963  	0,004257  	0,004230  	-0,000000  	-0,000000  	26,428835  	24,685257  	25,694433  	25,604560  	28,696412  	27,495726  	28,953982  	28,622754  	31,501712  	31,046888  	34,347823  	62,736631  	27,083023  	26,177161  	28,037759  	68,611081  	0,214460  	0,108668  	-3649,532616  	25540,897752  	-0,018529  	-0,050003  	0,208640  	0,105719  	-4,434024  	5026,706459  	75689,909823  	10,977893  	-0,047954  
289,554000  	23,044986  	31,075965  	24,865047  	57,696365  	80,043827  	70,033999  	0,007474  	0,006338  	0,003959  	0,004291  	0,004268  	0,000001  	-0,000000  	26,426942  	24,675109  	25,690662  	25,594205  	28,682749  	27,491091  	28,944656  	28,625457  	31,492165  	31,036145  	34,339316  	62,732960  	27,081252  	26,161224  	28,033626  	68,606288  	0,242177  	0,122713  	-4120,432472  	1778,270659  	-0,053844  	-0,049989  	0,238716  	0,120959  	-5,073109  	5016,515698  	75770,716974  	10,989613  	-0,047942  
290,558000  	23,073731  	31,080090  	24,866645  	1256,670793  	80,045640  	70,031445  	0,007464  	0,006335  	0,003962  	0,004282  	0,004249  	0,000001  	-0,000000  	26,423858  	24,675177  	25,683364  	25,587533  	28,686358  	27,495871  	28,945955  	28,629489  	31,492261  	31,045874  	34,335019  	62,736101  	27,079781  	26,139088  	28,022643  	68,617824  	0,235408  	0,119283  	-3992,992023  	25535,217003  	-0,018525  	-0,049991  	0,223547  	0,113273  	-4,752815  	5011,629367  	75571,142233  	10,960668  	-0,047943  
291,554000  	23,099527  	31,077043  	24,867014  	1256,670793  	80,045358  	70,032909  	0,007465  	0,006333  	0,003960  	0,004294  	0,004202  	0,000001  	-0,000000  	26,412120  	24,670922  	25,687249  	25,584613  	28,678123  	27,489308  	28,942848  	28,623433  	31,488340  	31,032676  	34,330838  	62,729929  	27,075101  	26,136782  	28,016312  	68,603226  	0,244447  	0,123863  	-4131,364985  	25535,130244  	-0,018525  	-0,049990  	0,186484  	0,094493  	-3,964131  	5007,381153  	75573,528883  	10,961014  	-0,047943  
292,555000  	23,073116  	31,076304  	24,868120  	1256,670793  	80,046546  	70,031227  	0,007469  	0,006353  	0,003961  	0,004266  	0,004256  	-0,000001  	-0,000000  	26,424760  	24,678452  	25,684230  	25,592991  	28,687029  	27,491480  	28,948510  	28,623218  	31,491353  	31,050919  	34,339256  	62,734023  	27,083246  	26,144971  	28,025663  	68,613367  	0,222106  	0,112543  	-3765,872012  	25544,537256  	-0,018532  	-0,050011  	0,228753  	0,115911  	-4,864040  	5050,636532  	75674,311867  	10,975631  	-0,047961  
293,556000  	23,033101  	31,081876  	24,869257  	956,927186  	80,050576  	70,033656  	0,007473  	0,006341  	0,003960  	0,004242  	0,004252  	-0,000001  	-0,000000  	26,424113  	24,676364  	25,682185  	25,585017  	28,681808  	27,493972  	28,952736  	28,614208  	31,488457  	31,044838  	34,336130  	62,731764  	27,083551  	26,159930  	28,025241  	68,608318  	0,202560  	0,102639  	-3454,033201  	22491,740191  	-0,022165  	-0,050007  	0,225450  	0,114237  	-4,794574  	5024,342882  	75758,098801  	10,987783  	-0,047957  
294,557000  	23,031935  	31,093942  	24,870854  	357,439972  	80,049639  	70,041381  	0,007469  	0,006339  	0,003958  	0,004301  	0,004235  	0,000000  	-0,000000  	26,424186  	24,678984  	25,689143  	25,600385  	28,688415  	27,496916  	28,954683  	28,623520  	31,492516  	31,045872  	34,340842  	62,724977  	27,085091  	26,172476  	28,027608  	68,610675  	0,250547  	0,126954  	-4279,326792  	12501,811540  	-0,036469  	-0,049998  	0,212073  	0,107459  	-4,506193  	5020,112354  	75674,664922  	10,975682  	-0,047950  
295,554000  	23,082882  	31,098375  	24,871315  	1256,670793  	80,044296  	70,034341  	0,007467  	0,006351  	0,003962  	0,004268  	0,004233  	-0,000000  	-0,000000  	26,422469  	24,677292  	25,688931  	25,589200  	28,690631  	27,495587  	28,951592  	28,625864  	31,497770  	31,046816  	34,342353  	62,732181  	27,088224  	26,184487  	28,024777  	68,613633  	0,223630  	0,113315  	-3797,537972  	25542,047237  	-0,018530  	-0,050006  	0,210998  	0,106914  	-4,484104  	5045,409920  	75624,672381  	10,968431  	-0,047956  
296,556000  	23,111258  	31,092095  	24,871623  	1256,670793  	80,038110  	70,033345  	0,007477  	0,006346  	0,003958  	0,004265  	0,004233  	0,000001  	-0,000000  	26,413286  	24,679465  	25,696127  	25,592118  	28,696851  	27,498786  	28,956550  	28,623772  	31,502139  	31,048692  	34,340978  	62,743748  	27,100320  	26,200943  	28,030901  	68,613074  	0,221652  	0,112313  	-3747,659659  	25536,377944  	-0,018526  	-0,049994  	0,210641  	0,106733  	-4,474203  	5034,909297  	75851,898364  	11,001388  	-0,047946  
297,556000  	23,111627  	31,085169  	24,873896  	1256,670793  	80,032424  	70,037799  	0,007470  	0,006333  	0,003960  	0,004302  	0,004267  	-0,000001  	-0,000000  	26,421446  	24,677948  	25,699190  	25,594490  	28,700705  	27,498708  	28,957383  	28,626551  	31,506506  	31,047502  	34,350532  	62,744723  	27,101597  	26,209879  	28,030797  	68,618722  	0,251037  	0,127203  	-4240,627367  	25545,270135  	-0,018533  	-0,050013  	0,237365  	0,120275  	-5,036734  	5005,871463  	75692,663649  	10,978293  	-0,047963  
298,637000  	23,122867  	31,090033  	24,874757  	1256,670793  	80,032924  	70,043343  	0,007468  	0,006342  	0,003960  	0,004283  	0,004249  	-0,000000  	-0,000000  	26,428880  	24,674632  	25,689611  	25,587473  	28,694665  	27,494205  	28,947334  	28,624134  	31,497952  	31,040081  	34,344610  	62,735328  	27,095395  	26,203506  	28,022595  	68,611759  	0,236114  	0,119641  	-3985,347181  	25541,346558  	-0,018530  	-0,050005  	0,223804  	0,113403  	-4,746574  	5027,093432  	75647,006620  	10,971671  	-0,047955  
299,555000  	23,123696  	31,101115  	24,877614  	357,439972  	80,030987  	70,051472  	0,007467  	0,006347  	0,003960  	0,004260  	0,004246  	0,000000  	-0,000000  	26,426493  	24,681821  	25,686984  	25,599001  	28,699006  	27,499856  	28,954329  	28,628989  	31,500997  	31,046880  	34,342920  	62,738666  	27,100674  	26,206356  	28,025191  	68,612719  	0,217612  	0,110266  	-3677,774595  	12501,023296  	-0,036467  	-0,049996  	0,221160  	0,112064  	-4,685792  	5037,064886  	75620,591070  	10,967839  	-0,047948  
300,557000  	23,119765  	31,105116  	24,880011  	956,927186  	80,025863  	70,051098  	0,007475  	0,006326  	0,003956  	0,004310  	0,004241  	0,000001  	-0,000000  	26,420320  	24,682393  	25,693443  	25,602140  	28,699599  	27,496782  	28,959752  	28,629803  	31,507200  	31,049893  	34,348528  	62,739538  	27,101679  	26,204155  	28,027410  	68,617673  	0,257627  	0,130542  	-4358,389072  	22483,062999  	-0,022157  	-0,049986  	0,216852  	0,109881  	-4,592324  	4991,812386  	75800,338261  	10,993910  	-0,047940  
301,555000  	23,085308  	31,110349  	24,880748  	57,696365  	80,022614  	70,036086  	0,007469  	0,006328  	0,003956  	0,004318  	0,004249  	0,000000  	-0,000000  	26,416777  	24,678614  	25,698163  	25,594487  	28,692832  	27,492709  	28,952412  	28,624985  	31,501359  	31,043499  	34,346690  	62,733251  	27,096330  	26,189042  	28,027677  	68,618095  	0,264539  	0,134044  	-4497,569681  	1777,627014  	-0,053850  	-0,049997  	0,223727  	0,113364  	-4,743499  	4996,345701  	75667,900395  	10,974701  	-0,047949  
302,557000  	23,051957  	31,120138  	24,882592  	1256,670793  	80,023176  	70,034591  	0,007470  	0,006339  	0,003960  	0,004249  	0,004173  	0,000002  	-0,000000  	26,421799  	24,684715  	25,700849  	25,602926  	28,697165  	27,501132  	28,955713  	28,636067  	31,499628  	31,046446  	34,350460  	62,740123  	27,102630  	26,177505  	28,033438  	68,627965  	0,208660  	0,105730  	-3566,619040  	25528,728622  	-0,018521  	-0,049978  	0,163652  	0,082924  	-3,470492  	5019,924173  	75683,258273  	10,976929  	-0,047932  
