06/30/2020 15:04:14
Tempo T_f_e T_f_s AR AR T_q_e T_q_s Corrente_P_f Corrente_P_q Corrente_P_RESERVA Corrente_eletromag_f Corrente_eletromag_q AR AR T_1 T_2 T_3 T_4 T_5 T_6 T_7 T_8 T_9 T_10 T_11 T_12 T_13 T_14 T_15 T_16 Velocidade_f_(m/s) Vazao_f_(L/s) q_f_(W) AR AR AR Velocidade_q_(m/s) Vazao_q_(L/s) q_q_(W) DeltaP_q_(Pa) DeltaP_f_(Pa) DeltaP_f_(Psi) AR
0,015000  	9,714348  	68,348885  	57,725912  	57,696365  	80,441165  	77,601431  	0,003997  	0,011076  	0,003961  	0,004011  	0,004423  	0,000002  	-0,000000  	26,411841  	20,742973  	23,115473  	35,645615  	52,813915  	49,654163  	51,379886  	57,234045  	68,435601  	66,166649  	68,191508  	74,380622  	25,165464  	23,203448  	24,415235  	76,451427  	0,015938  	0,008076  	-1982,612441  	-1,524506  	-0,051162  	-0,049981  	0,361161  	0,183003  	-2,180076  	15235,187527  	865,784719  	0,125571  	-0,047935  
2,581000  	9,712818  	68,350940  	1256,818530  	1256,670793  	80,445227  	77,600556  	0,003997  	0,011083  	0,003963  	0,003981  	0,004447  	0,000000  	-0,000000  	26,416473  	20,748963  	23,102218  	35,653998  	52,815914  	49,654152  	51,380308  	57,234313  	68,443821  	66,167776  	68,192980  	74,388323  	25,157903  	23,172141  	24,426278  	76,452684  	-0,008423  	-0,004268  	1047,879223  	-1,993365  	-0,011067  	-0,049995  	0,379985  	0,192541  	-2,297693  	15250,064412  	852,170931  	0,123597  	-0,047947  
3,579000  	9,712818  	68,354955  	1256,818530  	1256,670793  	80,446977  	77,595874  	0,003993  	0,011075  	0,003963  	0,004026  	0,004464  	-0,000000  	-0,000000  	26,416996  	20,752313  	23,123977  	35,660012  	52,819098  	49,662574  	51,380856  	57,239279  	68,439006  	66,168227  	68,208326  	74,381892  	25,168240  	23,145586  	24,423597  	76,458747  	0,027888  	0,014131  	-3469,705088  	-1,993623  	-0,011069  	-0,050002  	0,393945  	0,199615  	-2,387491  	15233,291572  	772,027522  	0,111973  	-0,047953  
4,577000  	9,712146  	68,350099  	57,725912  	1256,670793  	80,448101  	77,592502  	0,003996  	0,011056  	0,003962  	0,004001  	0,004447  	0,000001  	-0,000000  	26,417248  	20,756067  	23,125734  	35,668161  	52,826723  	49,676835  	51,391240  	57,245267  	68,438380  	66,174590  	68,207241  	74,380861  	25,167694  	23,128699  	24,422257  	76,461386  	0,007410  	0,003755  	-921,836751  	24486,286932  	-0,018198  	-0,049989  	0,380109  	0,192604  	-2,307269  	15192,817163  	835,499690  	0,121179  	-0,047942  
5,580000  	9,711411  	68,348512  	1256,818530  	1256,670793  	80,449851  	77,598808  	0,003996  	0,011068  	0,003963  	0,004000  	0,004463  	0,000001  	-0,000000  	26,408939  	20,753800  	23,110989  	35,656382  	52,817725  	49,662922  	51,383350  	57,241334  	68,429922  	66,163815  	68,204638  	74,371575  	25,163214  	23,091744  	24,426553  	76,458087  	0,006844  	0,003468  	-851,424439  	-1,993306  	-0,011067  	-0,049993  	0,393094  	0,199184  	-2,382285  	15218,080772  	846,945722  	0,122839  	-0,047945  
6,578000  	9,711595  	68,354426  	1256,818530  	1256,670793  	80,450164  	77,608111  	0,003994  	0,011047  	0,003961  	0,003974  	0,004441  	-0,000000  	-0,000000  	26,427143  	20,758539  	23,121566  	35,665155  	52,831391  	49,666856  	51,389047  	57,253815  	68,433221  	66,175467  	68,209803  	74,387762  	25,178681  	23,072009  	24,440738  	76,467294  	-0,014111  	-0,007150  	1755,592221  	-1,993637  	-0,011069  	-0,050002  	0,375323  	0,190179  	-2,267418  	15171,874635  	800,914455  	0,116163  	-0,047953  
7,578000  	9,711228  	68,362177  	357,499067  	1256,670793  	80,446195  	77,606613  	0,003997  	0,011069  	0,003963  	0,003979  	0,004496  	0,000001  	-0,000000  	26,409088  	20,755386  	23,112401  	35,657331  	52,825825  	49,663376  	51,386734  	57,246016  	68,427090  	66,165275  	68,207713  	74,384511  	25,162507  	23,041432  	24,426620  	76,446383  	-0,010496  	-0,005318  	1306,001811  	16228,176790  	-0,015673  	-0,049990  	0,419446  	0,212536  	-2,531770  	15218,859670  	857,043085  	0,124304  	-0,047943  
8,579000  	9,709331  	68,356699  	-242,047242  	1256,670793  	80,445508  	77,601680  	0,003994  	0,011062  	0,003962  	0,004020  	0,004490  	0,000001  	-0,000000  	26,401950  	20,752934  	23,115905  	35,656081  	52,815508  	49,649662  	51,382128  	57,241334  	68,420867  	66,155124  	68,215422  	74,376373  	25,167182  	23,028093  	24,419391  	76,448288  	0,022489  	0,011396  	-2798,232626  	35504,453865  	-0,021694  	-0,049993  	0,414223  	0,209890  	-2,503980  	15205,599300  	804,374390  	0,116665  	-0,047945  
9,580000  	9,707833  	68,349695  	1256,818530  	956,927186  	80,445383  	77,597840  	0,003994  	0,011046  	0,003962  	0,003981  	0,004426  	0,000000  	-0,000000  	26,405255  	20,751866  	23,123611  	35,656837  	52,814740  	49,656450  	51,389864  	57,239597  	68,425531  	66,157515  	68,208671  	74,383920  	25,164297  	23,015755  	24,420473  	76,450858  	-0,008565  	-0,004340  	1065,630680  	-4420,507024  	-0,012270  	-0,049998  	0,363967  	0,184425  	-2,203057  	15169,887419  	787,809066  	0,114262  	-0,047950  
10,579000  	9,707649  	68,342224  	1256,818530  	357,439972  	80,445383  	77,589599  	0,003998  	0,011068  	0,003961  	0,004003  	0,004440  	0,000001  	-0,000000  	26,411167  	20,755363  	23,120928  	35,657912  	52,827912  	49,658487  	51,384972  	57,243963  	68,422788  	66,158210  	68,211239  	74,386557  	25,163768  	23,008645  	24,428141  	76,453424  	0,009384  	0,004755  	-1167,310981  	-16230,698077  	-0,015672  	-0,049988  	0,374541  	0,189783  	-2,273620  	15218,087847  	878,614726  	0,127432  	-0,047941  
11,579000  	9,708934  	68,331858  	1256,818530  	357,439972  	80,444008  	77,587101  	0,003994  	0,011090  	0,003965  	0,004000  	0,004491  	-0,000000  	-0,000000  	26,413790  	20,752804  	23,116442  	35,655479  	52,824187  	49,652958  	51,382696  	57,241460  	68,417689  	66,155313  	68,213303  	74,375060  	25,165312  	22,995441  	24,426529  	76,452533  	0,006816  	0,003454  	-847,782427  	-16234,331130  	-0,015675  	-0,050000  	0,415427  	0,210500  	-2,522801  	15264,351287  	791,960988  	0,114864  	-0,047952  
12,578000  	9,707894  	68,328061  	1256,818530  	956,927186  	80,443696  	77,591097  	0,003994  	0,011081  	0,003961  	0,003990  	0,004438  	-0,000000  	-0,000000  	26,401480  	20,744969  	23,107148  	35,652285  	52,823433  	49,650628  	51,385203  	57,238551  	68,415901  	66,154689  	68,216357  	74,373566  	25,162869  	22,982843  	24,421517  	76,450090  	-0,001521  	-0,000771  	189,203281  	-4420,731687  	-0,012271  	-0,050001  	0,372944  	0,188974  	-2,261400  	15246,474830  	797,616924  	0,115685  	-0,047952  
13,578000  	9,707557  	68,338271  	1256,818530  	57,696365  	80,441540  	77,597185  	0,003996  	0,011057  	0,003962  	0,004020  	0,004490  	0,000002  	-0,000000  	26,400773  	20,748445  	23,108619  	35,653821  	52,823768  	49,656988  	51,388083  	57,243901  	68,417085  	66,158140  	68,225328  	74,378897  	25,156076  	22,982719  	24,420452  	76,455368  	0,022601  	0,011452  	-2811,285717  	-24482,676819  	-0,018192  	-0,049975  	0,413989  	0,209771  	-2,503029  	15193,977375  	842,807921  	0,122239  	-0,047930  
14,578000  	9,707680  	68,339080  	657,272221  	657,183579  	80,437915  	77,597872  	0,003994  	0,011101  	0,003961  	0,003969  	0,004458  	0,000001  	-0,000000  	26,408790  	20,751168  	23,116221  	35,660567  	52,819718  	49,663652  	51,392034  	57,244823  	68,417788  	66,157446  	68,227790  	74,381250  	25,153409  	22,987701  	24,418781  	76,460298  	-0,018122  	-0,009183  	2254,242474  	-1,810134  	-0,018195  	-0,049984  	0,388925  	0,197071  	-2,347923  	15288,998003  	790,760603  	0,114690  	-0,047937  
15,577000  	9,706762  	68,337212  	657,272221  	-242,047242  	80,436197  	77,592721  	0,003995  	0,011042  	0,003962  	0,004007  	0,004513  	0,000000  	-0,000000  	26,408790  	20,755160  	23,113308  	35,665918  	52,823997  	49,665738  	51,395056  	57,245298  	68,420008  	66,159237  	68,228451  	74,386216  	25,150889  	22,993393  	24,424300  	76,461219  	0,012435  	0,006301  	-1546,812005  	-32741,363687  	-0,035219  	-0,049995  	0,432945  	0,219376  	-2,616826  	15160,986331  	829,497760  	0,120308  	-0,047947  
16,579000  	9,706028  	68,334037  	57,725912  	956,927186  	80,437321  	77,597216  	0,003996  	0,011052  	0,003963  	0,004036  	0,004442  	0,000000  	-0,000000  	26,415589  	20,765773  	23,117208  	35,665278  	52,829619  	49,668808  	51,395145  	57,254700  	68,424252  	66,165329  	68,236518  	74,394904  	25,152556  	23,006783  	24,435734  	76,459221  	0,035759  	0,018119  	-4447,862725  	21302,026898  	-0,021694  	-0,049994  	0,376387  	0,190718  	-2,272283  	15184,204006  	835,965722  	0,121247  	-0,047946  
17,583000  	9,706456  	68,322302  	1256,818530  	956,927186  	80,440134  	77,591160  	0,003995  	0,011080  	0,003962  	0,003990  	0,004389  	0,000001  	-0,000000  	26,417974  	20,762112  	23,124941  	35,663440  	52,825022  	49,666106  	51,387495  	57,254348  	68,425593  	66,163069  	68,238161  	74,393539  	25,154055  	23,013609  	24,431197  	76,449156  	-0,001162  	-0,000589  	144,487315  	-4420,105286  	-0,012269  	-0,049993  	0,334463  	0,169475  	-2,025483  	15242,813089  	809,288911  	0,117377  	-0,047946  
18,581000  	9,706273  	68,316575  	657,272221  	357,439972  	80,443571  	77,595031  	0,003997  	0,011080  	0,003962  	0,003966  	0,004475  	-0,000000  	-0,000000  	26,406670  	20,753789  	23,115708  	35,662937  	52,817893  	49,658568  	51,382491  	57,244216  	68,424240  	66,160353  	68,233242  	74,382537  	25,139469  	23,001582  	24,421327  	76,447605  	-0,020929  	-0,010605  	2602,491124  	-7103,810469  	-0,021696  	-0,050002  	0,402192  	0,203794  	-2,435281  	15243,454035  	852,170931  	0,123597  	-0,047953  
19,580000  	9,706640  	68,319656  	-242,047242  	1256,670793  	80,445977  	77,596717  	0,003996  	0,011030  	0,003963  	0,004003  	0,004471  	0,000001  	-0,000000  	26,414441  	20,751625  	23,116707  	35,661632  	52,820714  	49,664305  	51,395617  	57,247687  	68,417265  	66,158992  	68,239092  	74,389861  	25,150199  	22,995530  	24,426498  	76,458160  	0,009447  	0,004787  	-1174,711885  	35503,408541  	-0,021693  	-0,049991  	0,399176  	0,202265  	-2,417626  	15136,072908  	844,460217  	0,122479  	-0,047944  
20,579000  	9,704988  	68,324948  	957,045375  	57,696365  	80,442665  	77,594594  	0,003995  	0,011089  	0,003961  	0,004022  	0,004441  	0,000002  	-0,000000  	26,421390  	20,752497  	23,125433  	35,659185  	52,815598  	49,666727  	51,399227  	57,248785  	68,414222  	66,159657  	68,242733  	74,390707  	25,159982  	22,979988  	24,420836  	76,450467  	0,024643  	0,012487  	-3064,827617  	-21299,368178  	-0,021687  	-0,049980  	0,375810  	0,190426  	-2,275161  	15262,013885  	821,617580  	0,119166  	-0,047935  
21,576000  	9,705202  	68,333166  	57,725912  	57,696365  	80,443258  	77,591690  	0,003995  	0,011073  	0,003965  	0,004008  	0,004428  	0,000001  	-0,000000  	26,405001  	20,749527  	23,117886  	35,652749  	52,817845  	49,655225  	51,389921  	57,239718  	68,414252  	66,157295  	68,241713  	74,381525  	25,153710  	22,952481  	24,423735  	76,448347  	0,012750  	0,006460  	-1585,840246  	-1,524689  	-0,051168  	-0,049987  	0,365066  	0,184982  	-2,212831  	15227,763587  	815,905156  	0,118337  	-0,047941  
22,597000  	9,704284  	68,327874  	657,272221  	657,183579  	80,443508  	77,587944  	0,003997  	0,011044  	0,003962  	0,004024  	0,004441  	0,000001  	-0,000000  	26,407885  	20,749536  	23,112483  	35,658005  	52,822345  	49,656246  	51,391734  	57,243273  	68,413566  	66,149477  	68,249616  	74,376535  	25,172551  	22,928619  	24,412791  	76,449658  	0,026322  	0,013337  	-3273,754080  	-1,810143  	-0,018195  	-0,049984  	0,375185  	0,190109  	-2,277348  	15165,583316  	868,446751  	0,125958  	-0,047938  
23,578000  	9,703642  	68,327033  	-242,047242  	-242,047242  	80,440415  	77,593876  	0,003995  	0,011083  	0,003961  	0,004011  	0,004466  	-0,000000  	-0,000000  	26,393059  	20,738691  	23,109804  	35,663660  	52,810027  	49,646105  	51,384960  	57,239588  	68,406026  	66,143304  	68,234131  	74,363611  	25,159314  	22,897218  	24,405692  	76,449917  	0,015938  	0,008076  	-1982,271798  	-0,000000  	-0,544440  	-0,050001  	0,395287  	0,200295  	-2,391789  	15249,405780  	813,511445  	0,117990  	-0,047952  
24,576000  	9,703153  	68,333010  	957,045375  	956,927186  	80,439602  	77,596436  	0,003995  	0,011083  	0,003963  	0,003966  	0,004436  	0,000001  	-0,000000  	26,399684  	20,743664  	23,113896  	35,664398  	52,817694  	49,663487  	51,390688  	57,237006  	68,411873  	66,144225  	68,246583  	74,367606  	25,163524  	22,875683  	24,422182  	76,452498  	-0,021304  	-0,010795  	2649,924085  	-1,916761  	-0,013763  	-0,049991  	0,371924  	0,188457  	-2,247758  	15249,726253  	812,833580  	0,117892  	-0,047943  
25,577000  	9,704957  	68,339920  	57,725912  	1256,670793  	80,437759  	77,598402  	0,003996  	0,011093  	0,003963  	0,003988  	0,004473  	0,000001  	-0,000000  	26,403509  	20,746592  	23,118596  	35,659351  	52,821105  	49,662188  	51,403415  	57,256311  	68,410829  	66,145502  	68,253420  	74,379566  	25,169209  	22,870103  	24,427189  	76,461872  	-0,003334  	-0,001689  	414,718222  	24484,045091  	-0,018196  	-0,049984  	0,400700  	0,203038  	-2,418425  	15270,901531  	849,586571  	0,123222  	-0,047938  
26,578000  	9,705141  	68,341415  	1256,818530  	657,183579  	80,440071  	77,597528  	0,003995  	0,011050  	0,003962  	0,004014  	0,004485  	-0,000001  	-0,000000  	26,401188  	20,737591  	23,117599  	35,672835  	52,816889  	49,658397  	51,387723  	57,236787  	68,409003  	66,144966  	68,240771  	74,376376  	25,149096  	22,839520  	24,421240  	76,460830  	0,017571  	0,008903  	-2185,803734  	-9728,862963  	-0,013769  	-0,050015  	0,410642  	0,208075  	-2,481208  	15179,870899  	825,479998  	0,119726  	-0,047964  
27,577000  	9,705049  	68,338240  	1256,818530  	657,183579  	80,442883  	77,593876  	0,003994  	0,011055  	0,003962  	0,003956  	0,004444  	0,000001  	-0,000000  	26,390843  	20,730203  	23,116397  	35,659772  	52,814816  	49,650290  	51,387743  	57,234719  	68,406495  	66,141336  	68,248148  	74,366968  	25,142396  	22,823562  	24,414998  	76,446946  	-0,029164  	-0,014777  	3627,795604  	-9723,660000  	-0,013762  	-0,049985  	0,377675  	0,191370  	-2,287201  	15190,249133  	794,340577  	0,115209  	-0,047939  
28,577000  	9,704560  	68,337991  	1256,818530  	1256,670793  	80,443383  	77,593876  	0,003997  	0,011054  	0,003964  	0,004003  	0,004458  	0,000001  	-0,000000  	26,408481  	20,739707  	23,114900  	35,653690  	52,812059  	49,664108  	51,382928  	57,242109  	68,405690  	66,132574  	68,245278  	74,362381  	25,149181  	22,800187  	24,411818  	76,446441  	0,008877  	0,004498  	-1104,197943  	-1,992968  	-0,011065  	-0,049983  	0,388866  	0,197041  	-2,355388  	15187,696668  	870,374430  	0,126237  	-0,047937  
29,580000  	9,706976  	68,339173  	1256,818530  	57,696365  	80,442883  	77,591004  	0,003998  	0,011057  	0,003964  	0,004044  	0,004445  	0,000002  	-0,000000  	26,421848  	20,748753  	23,120437  	35,666744  	52,827767  	49,657956  	51,385551  	57,242488  	68,414378  	66,144851  	68,255293  	74,374171  	25,158206  	22,799469  	24,420433  	76,449549  	0,041998  	0,021281  	-5224,223066  	-24482,696549  	-0,018192  	-0,049975  	0,378885  	0,191984  	-2,296843  	15193,021615  	878,106327  	0,127359  	-0,047930  
30,577000  	9,706548  	68,339734  	1256,818530  	1256,670793  	80,441758  	77,599682  	0,003995  	0,011063  	0,003960  	0,003973  	0,004430  	-0,000000  	-0,000000  	26,410407  	20,754627  	23,124658  	35,665563  	52,824259  	49,655214  	51,396737  	57,246324  	68,420134  	66,157258  	68,254441  	74,383916  	25,168342  	22,785092  	24,422656  	76,455965  	-0,015628  	-0,007919  	1944,080632  	-1,993733  	-0,011069  	-0,050005  	0,366754  	0,185837  	-2,215664  	15207,777526  	822,556706  	0,119302  	-0,047956  
31,578000  	9,706273  	68,342162  	1256,818530  	1256,670793  	80,443133  	77,598871  	0,003994  	0,011080  	0,003962  	0,003987  	0,004451  	0,000000  	-0,000000  	26,420664  	20,752379  	23,129165  	35,672647  	52,832032  	49,663993  	51,403883  	57,244882  	68,429014  	66,150256  	68,265377  	74,390442  	25,172024  	22,775053  	24,427781  	76,457819  	-0,003972  	-0,002012  	494,078977  	-1,993494  	-0,011068  	-0,049998  	0,383639  	0,194393  	-2,319456  	15243,382583  	806,309130  	0,116945  	-0,047950  
32,576000  	9,706273  	68,340356  	1256,818530  	57,696365  	80,443571  	77,599120  	0,003996  	0,011057  	0,003961  	0,003966  	0,004460  	0,000002  	-0,000000  	26,413233  	20,744464  	23,118263  	35,664357  	52,826593  	49,662164  	51,391124  	57,246467  	68,423035  	66,145923  	68,258728  	74,381792  	25,166025  	22,765749  	24,413395  	76,451389  	-0,021264  	-0,010774  	2645,123381  	-24484,633684  	-0,018193  	-0,049980  	0,390262  	0,197749  	-2,359652  	15194,287943  	848,252024  	0,123029  	-0,047934  
33,581000  	9,705386  	68,331111  	-242,047242  	-242,047242  	80,445508  	77,596155  	0,003997  	0,011077  	0,003962  	0,004009  	0,004459  	0,000001  	-0,000000  	26,411716  	20,742662  	23,119183  	35,664335  	52,819326  	49,664569  	51,390442  	57,242149  	68,414318  	66,139432  	68,256900  	74,369369  	25,169695  	22,756633  	24,421693  	76,449079  	0,014029  	0,007108  	-1744,857292  	-0,000000  	-0,544306  	-0,049987  	0,389445  	0,197335  	-2,358770  	15236,361180  	855,073040  	0,124018  	-0,047940  
34,577000  	9,703122  	68,325010  	-242,047242  	357,439972  	80,445383  	77,600026  	0,003992  	0,011042  	0,003963  	0,004005  	0,004404  	0,000001  	-0,000000  	26,402575  	20,751034  	23,113757  	35,666261  	52,824255  	49,659458  	51,388584  	57,238705  	68,417658  	66,137129  	68,252541  	74,374463  	25,157456  	22,750413  	24,420910  	76,453261  	0,010506  	0,005323  	-1306,631314  	30938,863967  	-0,051176  	-0,049993  	0,346425  	0,175536  	-2,095266  	15161,243134  	751,981078  	0,109066  	-0,047946  
35,580000  	9,702663  	68,320154  	657,272221  	1256,670793  	80,442727  	77,594625  	0,003995  	0,011046  	0,003962  	0,003971  	0,004448  	-0,000000  	-0,000000  	26,406928  	20,751483  	23,115144  	35,665823  	52,823822  	49,666921  	51,386938  	57,247011  	68,424097  	66,137595  	68,260242  	74,379501  	25,173220  	22,755950  	24,421159  	76,454817  	-0,016565  	-0,008394  	2060,094037  	9723,622114  	-0,013767  	-0,050006  	0,381119  	0,193116  	-2,307326  	15169,707727  	824,766828  	0,119622  	-0,047957  
36,584000  	9,703764  	68,319905  	57,725912  	1256,670793  	80,437665  	77,596061  	0,003995  	0,011059  	0,003963  	0,003982  	0,004462  	0,000001  	-0,000000  	26,412959  	20,747838  	23,124324  	35,672046  	52,829096  	49,672036  	51,395366  	57,255797  	68,426903  	66,148574  	68,263617  	74,388029  	25,186068  	22,752555  	24,419985  	76,458691  	-0,008332  	-0,004222  	1036,122300  	24488,179047  	-0,018199  	-0,049993  	0,392515  	0,198890  	-2,370896  	15198,817721  	813,483201  	0,117986  	-0,047946  
37,577000  	9,703764  	68,329866  	1256,818530  	956,927186  	80,435665  	77,597310  	0,003995  	0,011065  	0,003960  	0,004017  	0,004448  	0,000001  	-0,000000  	26,409086  	20,749419  	23,121208  	35,662609  	52,825680  	49,663744  	51,391981  	57,244702  	68,420740  	66,152138  	68,253129  	74,381925  	25,181243  	22,737181  	24,417455  	76,450224  	0,020439  	0,010357  	-2542,211987  	-4419,835302  	-0,012268  	-0,049990  	0,381110  	0,193111  	-2,299378  	15211,152045  	825,769503  	0,119768  	-0,047943  
38,578000  	9,702663  	68,328746  	1256,818530  	357,439972  	80,436728  	77,591378  	0,003997  	0,011058  	0,003964  	0,003998  	0,004452  	0,000001  	-0,000000  	26,411767  	20,748020  	23,118601  	35,652177  	52,817749  	49,663644  	51,387137  	57,243928  	68,416100  	66,147263  	68,251333  	74,380523  	25,185758  	22,733625  	24,413757  	76,442880  	0,005347  	0,002709  	-665,023922  	-16232,248306  	-0,015673  	-0,049993  	0,383854  	0,194501  	-2,321635  	15197,020808  	857,459690  	0,124364  	-0,047946  
39,579000  	9,702847  	68,328652  	1256,818530  	1256,670793  	80,437384  	77,585603  	0,003995  	0,011049  	0,003963  	0,004014  	0,004466  	0,000001  	-0,000000  	26,409349  	20,743571  	23,116482  	35,657400  	52,823469  	49,665672  	51,385645  	57,246479  	68,412990  	66,144116  	68,253203  	74,379609  	25,189050  	22,745042  	24,413793  	76,445116  	0,018182  	0,009213  	-2261,450452  	-1,993315  	-0,011067  	-0,049993  	0,395545  	0,200426  	-2,397752  	15177,479731  	814,125760  	0,118079  	-0,047946  
40,577000  	9,704193  	68,334193  	57,725912  	57,696365  	80,437884  	77,591659  	0,003996  	0,011046  	0,003961  	0,003957  	0,004431  	0,000001  	-0,000000  	26,408791  	20,746344  	23,111369  	35,656950  	52,824864  	49,666533  	51,384449  	57,245713  	68,414377  	66,146901  	68,254633  	74,377494  	25,202035  	22,768816  	24,411833  	76,450196  	-0,028294  	-0,014337  	3519,435180  	-1,524721  	-0,051169  	-0,049989  	0,367787  	0,186360  	-2,225145  	15169,890248  	845,893619  	0,122686  	-0,047942  
41,578000  	9,704131  	68,338053  	57,725912  	-242,047242  	80,440665  	77,594344  	0,003996  	0,011075  	0,003964  	0,003949  	0,004463  	0,000000  	-0,000000  	26,417637  	20,751290  	23,111131  	35,653984  	52,816621  	49,669848  	51,390736  	57,251361  	68,421086  	66,149448  	68,258518  	74,380221  	25,223636  	22,792074  	24,405885  	76,449890  	-0,034902  	-0,017685  	4341,675685  	-27697,447715  	-0,093552  	-0,049995  	0,392970  	0,199121  	-2,377586  	15232,859322  	832,759986  	0,120782  	-0,047947  
42,578000  	9,704009  	68,331765  	1256,818530  	357,439972  	80,443602  	77,588413  	0,003995  	0,011062  	0,003962  	0,004003  	0,004469  	0,000001  	-0,000000  	26,414712  	20,751555  	23,116976  	35,667378  	52,817002  	49,672869  	51,394061  	57,255463  	68,421161  	66,149558  	68,255937  	74,384552  	25,225092  	22,805348  	24,409687  	76,447705  	0,009460  	0,004793  	-1176,627005  	-16231,298434  	-0,015672  	-0,049990  	0,397352  	0,201341  	-2,411587  	15203,858275  	821,462236  	0,119143  	-0,047943  
43,577000  	9,704101  	68,325975  	357,499067  	357,439972  	80,444039  	77,590598  	0,003995  	0,011064  	0,003959  	0,003988  	0,004445  	-0,000001  	-0,000000  	26,408068  	20,750933  	23,122898  	35,672355  	52,821858  	49,675622  	51,388288  	57,254509  	68,421017  	66,150704  	68,252942  	74,385908  	25,225327  	22,811685  	24,414935  	76,453518  	-0,003302  	-0,001673  	410,660585  	-1,685559  	-0,026857  	-0,050011  	0,378588  	0,191833  	-2,296297  	15210,091583  	818,002301  	0,118641  	-0,047960  
44,577000  	9,704774  	68,325788  	957,045375  	956,927186  	80,441540  	77,595156  	0,003997  	0,011051  	0,003962  	0,004004  	0,004465  	0,000002  	-0,000000  	26,413832  	20,752504  	23,121708  	35,662336  	52,824374  	49,673470  	51,390539  	57,249612  	68,426454  	66,150983  	68,256248  	74,378258  	25,230652  	22,806889  	24,413322  	76,456178  	0,010161  	0,005149  	-1263,755864  	-1,916284  	-0,013760  	-0,049977  	0,394384  	0,199837  	-2,386192  	15180,637063  	863,751124  	0,125277  	-0,047931  
45,580000  	9,704284  	68,333601  	-242,047242  	1256,670793  	80,439634  	77,600931  	0,003996  	0,011058  	0,003963  	0,003997  	0,004442  	0,000001  	-0,000000  	26,414297  	20,753666  	23,116798  	35,664416  	52,822254  	49,674187  	51,391067  	57,249285  	68,422377  	66,153929  	68,254478  	74,381214  	25,222150  	22,811829  	24,420922  	76,451447  	0,004404  	0,002231  	-547,744239  	35498,514759  	-0,021690  	-0,049983  	0,376452  	0,190751  	-2,271555  	15197,162297  	830,705207  	0,120484  	-0,047937  
46,577000  	9,704529  	68,337524  	357,499067  	657,183579  	80,438634  	77,602242  	0,003996  	0,011054  	0,003964  	0,003969  	0,004472  	0,000001  	-0,000000  	26,407340  	20,742061  	23,113934  	35,655009  	52,817028  	49,673004  	51,383607  	57,253296  	68,423148  	66,150776  	68,249160  	74,377403  	25,226192  	22,831410  	24,416327  	76,450857  	-0,018457  	-0,009352  	2295,979489  	7098,789389  	-0,021692  	-0,049989  	0,399920  	0,202643  	-2,411201  	15186,776280  	849,473593  	0,123206  	-0,047942  
47,577000  	9,706273  	68,335002  	1256,818530  	-242,047242  	80,441477  	77,594438  	0,003993  	0,011036  	0,003963  	0,004008  	0,004492  	0,000001  	-0,000000  	26,417126  	20,748887  	23,126234  	35,663147  	52,822921  	49,680517  	51,398723  	57,257323  	68,426954  	66,153159  	68,252783  	74,382787  	25,231621  	22,860932  	24,418206  	76,453637  	0,013064  	0,006620  	-1624,987742  	-35501,483674  	-0,021690  	-0,049987  	0,416322  	0,210953  	-2,519508  	15149,295076  	771,963972  	0,111964  	-0,047940  
48,581000  	9,706334  	68,326784  	57,725912  	956,927186  	80,446352  	77,595437  	0,003994  	0,011059  	0,003961  	0,004005  	0,004473  	-0,000001  	-0,000000  	26,408908  	20,752037  	23,122745  	35,663534  	52,827917  	49,678748  	51,395406  	57,260256  	68,429662  	66,150241  	68,257727  	74,385938  	25,235237  	22,880936  	24,414920  	76,454103  	0,010639  	0,005391  	-1323,119549  	21308,384342  	-0,021700  	-0,050011  	0,400863  	0,203120  	-2,429255  	15198,928790  	805,278210  	0,116796  	-0,047960  
49,577000  	9,704988  	68,322427  	1256,818530  	1256,670793  	80,447289  	77,595562  	0,003997  	0,011048  	0,003961  	0,003974  	0,004487  	0,000001  	-0,000000  	26,415760  	20,752617  	23,118372  	35,655486  	52,823951  	49,672704  	51,386770  	57,252093  	68,436440  	66,151916  	68,250539  	74,379533  	25,243219  	22,894232  	24,407289  	76,455431  	-0,014750  	-0,007474  	1834,295281  	-1,993006  	-0,011065  	-0,049984  	0,412295  	0,208913  	-2,499245  	15173,680037  	866,053041  	0,125610  	-0,047938  
50,577000  	9,705355  	68,325415  	1256,818530  	1256,670793  	80,444477  	77,601368  	0,003995  	0,011064  	0,003962  	0,003966  	0,004480  	0,000001  	-0,000000  	26,412212  	20,749348  	23,112073  	35,657280  	52,824117  	49,675097  	51,388187  	57,251737  	68,441925  	66,144554  	68,244220  	74,378786  	25,235383  	22,892518  	24,408992  	76,448543  	-0,020641  	-0,010459  	2567,107677  	-1,993183  	-0,011066  	-0,049989  	0,406095  	0,205771  	-2,454226  	15209,116722  	821,144487  	0,119097  	-0,047942  
51,581000  	9,706089  	68,327656  	1256,818530  	1256,670793  	80,443696  	77,595437  	0,003996  	0,011054  	0,003964  	0,004009  	0,004461  	0,000001  	-0,000000  	26,406470  	20,753291  	23,107927  	35,654790  	52,834934  	49,677452  	51,391188  	57,260802  	68,434880  	66,150794  	68,254308  	74,386764  	25,240184  	22,897088  	24,417858  	76,447929  	0,013685  	0,006934  	-1702,009453  	-1,993163  	-0,011066  	-0,049989  	0,391242  	0,198245  	-2,368741  	15188,022800  	837,879278  	0,121524  	-0,047942  
52,576000  	9,704621  	68,330395  	1256,818530  	57,696365  	80,444321  	77,582575  	0,003997  	0,011068  	0,003964  	0,003991  	0,004445  	0,000001  	-0,000000  	26,411324  	20,740833  	23,122465  	35,657321  	52,832673  	49,679391  	51,403732  	57,251858  	68,440586  	66,158868  	68,252986  	74,374487  	25,247234  	22,888180  	24,410292  	76,456704  	-0,000496  	-0,000251  	61,734548  	-24489,429887  	-0,018197  	-0,049991  	0,378714  	0,191897  	-2,303748  	15217,768081  	864,845594  	0,125435  	-0,047944  
53,578000  	9,705324  	68,341788  	-242,047242  	1256,670793  	80,439884  	77,585041  	0,003995  	0,011074  	0,003963  	0,004011  	0,004432  	-0,000000  	-0,000000  	26,412210  	20,750522  	23,115522  	35,662790  	52,824326  	49,673939  	51,397159  	57,237913  	68,432290  	66,157512  	68,240660  	74,383873  	25,243302  	22,859974  	24,407741  	76,443267  	0,015431  	0,007819  	-1919,685359  	35511,206867  	-0,021698  	-0,050004  	0,368277  	0,186608  	-2,234851  	15229,807399  	814,118699  	0,118078  	-0,047954  
54,584000  	9,705569  	68,347391  	357,499067  	657,183579  	80,436446  	77,592096  	0,003995  	0,011046  	0,003961  	0,003955  	0,004503  	0,000001  	-0,000000  	26,414332  	20,745097  	23,106650  	35,656213  	52,828435  	49,665183  	51,396638  	57,251721  	68,434225  	66,150631  	68,251173  	74,377840  	25,251916  	22,853964  	24,416140  	76,460862  	-0,029648  	-0,015023  	3688,553524  	7098,756112  	-0,021691  	-0,049989  	0,424693  	0,215195  	-2,567737  	15170,419418  	808,067342  	0,117200  	-0,047942  
55,582000  	9,706120  	68,340948  	357,499067  	657,183579  	80,444133  	77,589412  	0,003994  	0,011052  	0,003961  	0,004003  	0,004417  	-0,000000  	-0,000000  	26,416234  	20,746694  	23,119322  	35,669039  	52,833654  	49,671995  	51,395487  	57,258366  	68,443853  	66,150211  	68,245646  	74,383772  	25,253344  	22,819065  	24,416286  	76,465308  	0,008785  	0,004451  	-1092,788724  	7100,776089  	-0,021698  	-0,050005  	0,356232  	0,180505  	-2,161668  	15182,420534  	807,290622  	0,117088  	-0,047956  
56,583000  	9,705141  	68,334535  	957,045375  	1256,670793  	80,446633  	77,594157  	0,003994  	0,011079  	0,003961  	0,003997  	0,004452  	0,000002  	-0,000000  	26,415134  	20,747422  	23,119542  	35,665256  	52,832607  	49,667016  	51,390190  	57,258202  	68,443798  	66,147343  	68,250950  	74,379300  	25,246650  	22,793590  	24,407243  	76,455305  	0,004084  	0,002069  	-507,956471  	4415,239749  	-0,012266  	-0,049981  	0,383970  	0,194560  	-2,328155  	15241,067820  	802,510262  	0,116394  	-0,047935  
57,585000  	9,706242  	68,326037  	57,725912  	57,696365  	80,446195  	77,595655  	0,003997  	0,011073  	0,003962  	0,003992  	0,004462  	0,000000  	-0,000000  	26,404590  	20,745826  	23,123211  	35,661620  	52,829102  	49,668792  	51,390692  	57,248583  	68,438138  	66,151007  	68,248245  	74,383389  	25,258779  	22,769248  	24,409771  	76,448708  	-0,000107  	-0,000054  	13,322521  	-1,524967  	-0,051178  	-0,049998  	0,392515  	0,198890  	-2,378352  	15227,931960  	867,698275  	0,125849  	-0,047949  
58,582000  	9,707037  	68,311470  	657,272221  	1256,670793  	80,446633  	77,593470  	0,003997  	0,011095  	0,003963  	0,004036  	0,004432  	0,000001  	-0,000000  	26,418250  	20,750110  	23,124663  	35,668171  	52,844323  	49,678820  	51,399914  	57,254850  	68,439939  	66,161626  	68,253364  	74,387396  	25,252651  	22,761553  	24,415897  	76,458872  	0,035717  	0,018098  	-4440,821137  	9720,263704  	-0,013762  	-0,049987  	0,368724  	0,186835  	-2,236254  	15275,954111  	858,017516  	0,124445  	-0,047940  
59,578000  	9,706670  	68,311843  	-242,047242  	1256,670793  	80,444633  	77,604677  	0,003995  	0,011069  	0,003962  	0,004000  	0,004442  	0,000001  	-0,000000  	26,413975  	20,750425  	23,121947  	35,666044  	52,846145  	49,666666  	51,393637  	57,256614  	68,447374  	66,152085  	68,253280  	74,382558  	25,241559  	22,733240  	24,416724  	76,460810  	0,006860  	0,003476  	-852,910409  	35501,611727  	-0,021692  	-0,049988  	0,375935  	0,190489  	-2,269437  	15219,519010  	810,369259  	0,117534  	-0,047941  
60,576000  	9,705508  	68,320932  	957,045375  	1256,670793  	80,443571  	77,605052  	0,003993  	0,011057  	0,003964  	0,004034  	0,004459  	0,000001  	-0,000000  	26,413217  	20,747830  	23,124427  	35,656656  	52,833207  	49,660776  	51,393870  	57,247051  	68,445531  	66,149489  	68,245348  	74,376887  	25,234386  	22,711573  	24,408216  	76,454709  	0,034110  	0,017284  	-4241,868375  	4415,582916  	-0,012267  	-0,049985  	0,389465  	0,197345  	-2,349926  	15194,481076  	774,174094  	0,112284  	-0,047939  
61,578000  	9,705936  	68,321835  	57,725912  	956,927186  	80,442821  	77,603741  	0,003997  	0,011066  	0,003963  	0,004036  	0,004446  	0,000001  	-0,000000  	26,416862  	20,748770  	23,123633  	35,658228  	52,834037  	49,665450  	51,400793  	57,249560  	68,446356  	66,150645  	68,240335  	74,383450  	25,224713  	22,687352  	24,412364  	76,460216  	0,035671  	0,018075  	-4436,008029  	21299,426197  	-0,021691  	-0,049987  	0,379182  	0,192134  	-2,288330  	15213,773840  	862,882610  	0,125151  	-0,047940  
62,578000  	9,706364  	68,321773  	1256,818530  	357,439972  	80,444258  	77,603616  	0,003995  	0,011050  	0,003961  	0,003972  	0,004447  	-0,000000  	-0,000000  	26,417137  	20,753417  	23,132575  	35,666336  	52,842900  	49,663913  	51,410802  	57,258402  	68,455666  	66,159458  	68,248338  	74,393667  	25,232439  	22,673721  	24,420686  	76,466137  	-0,015796  	-0,008004  	1964,338840  	-16235,165686  	-0,015676  	-0,050003  	0,380237  	0,192669  	-2,295960  	15179,237027  	827,266455  	0,119985  	-0,047954  
63,577000  	9,705263  	68,324574  	1256,818530  	357,439972  	80,447914  	77,598434  	0,003993  	0,011048  	0,003962  	0,003970  	0,004470  	0,000001  	-0,000000  	26,414588  	20,748605  	23,130242  	35,669346  	52,843274  	49,655320  	51,410986  	57,246478  	68,453405  	66,152116  	68,247001  	74,386182  	25,231477  	22,658971  	24,420831  	76,459270  	-0,017502  	-0,008868  	2176,594305  	-16231,041647  	-0,015672  	-0,049989  	0,398790  	0,202070  	-2,415479  	15173,612123  	784,878712  	0,113837  	-0,047942  
64,581000  	9,704957  	68,332605  	1256,818530  	-242,047242  	80,445414  	77,593064  	0,003993  	0,011054  	0,003963  	0,004013  	0,004420  	0,000000  	-0,000001  	26,418888  	20,747778  	23,121234  	35,668919  	52,850297  	49,653647  	51,406140  	57,240359  	68,446593  	66,145695  	68,240113  	74,379048  	25,227703  	22,646349  	24,419251  	76,455608  	0,017492  	0,008863  	-2175,667625  	-35506,694785  	-0,021693  	-0,049995  	0,358597  	0,181704  	-2,174212  	15187,804907  	782,301413  	0,113463  	-0,047947  
65,578000  	9,704315  	68,337648  	1256,818530  	57,696365  	80,442696  	77,590785  	0,003995  	0,011062  	0,003963  	0,003971  	0,004442  	0,000001  	-0,000000  	26,420377  	20,749052  	23,123161  	35,664037  	52,846372  	49,653056  	51,400490  	57,245928  	68,442675  	66,148441  	68,240835  	74,380638  	25,233889  	22,632450  	24,413950  	76,455820  	-0,016934  	-0,008580  	2106,456324  	-24488,464907  	-0,018196  	-0,049989  	0,376254  	0,190651  	-2,280921  	15205,706124  	816,293516  	0,118393  	-0,047942  
66,577000  	9,705416  	68,336652  	1256,818530  	657,183579  	80,440758  	77,592908  	0,003997  	0,011076  	0,003962  	0,003993  	0,004500  	0,000000  	-0,000000  	26,411603  	20,749124  	23,119827  	35,662167  	52,839553  	49,646083  	51,400560  	57,242145  	68,442238  	66,145853  	68,236983  	74,384736  	25,232024  	22,610387  	24,410976  	76,454440  	0,001289  	0,000653  	-160,374623  	-9725,355860  	-0,013764  	-0,049995  	0,421981  	0,213821  	-2,554486  	15235,806543  	857,318468  	0,124344  	-0,047947  
67,580000  	9,704315  	68,335065  	1256,818530  	657,183579  	80,438165  	77,592377  	0,003994  	0,011067  	0,003962  	0,003990  	0,004486  	-0,000000  	-0,000000  	26,409608  	20,749128  	23,114468  	35,658570  	52,845385  	49,638403  	51,401899  	57,237302  	68,445168  	66,143732  	68,231415  	74,383467  	25,226372  	22,588402  	24,410230  	76,449601  	-0,001110  	-0,000562  	138,079811  	-9727,105138  	-0,013767  	-0,050005  	0,411441  	0,208480  	-2,488873  	15215,338711  	794,615959  	0,115249  	-0,047956  
68,576000  	9,703826  	68,336994  	57,725912  	1256,670793  	80,437040  	77,592128  	0,003995  	0,011037  	0,003960  	0,003977  	0,004506  	-0,000000  	-0,000000  	26,416292  	20,745641  	23,118469  	35,651636  	52,841843  	49,638795  	51,404221  	57,242308  	68,447415  	66,141285  	68,232407  	74,375670  	25,223871  	22,573633  	24,405419  	76,442806  	-0,012266  	-0,006215  	1525,812794  	24491,227952  	-0,018201  	-0,050000  	0,427209  	0,216470  	-2,583459  	15150,240224  	820,148873  	0,118953  	-0,047952  
69,577000  	9,704070  	68,339205  	957,045375  	956,927186  	80,438665  	77,594937  	0,003998  	0,010988  	0,003959  	0,004027  	0,004464  	0,000000  	-0,000000  	26,412208  	20,744315  	23,113696  	35,654674  	52,835513  	49,641186  	51,409558  	57,240282  	68,443972  	66,133620  	68,230161  	74,372674  	25,212481  	22,566793  	24,403935  	76,442253  	0,028397  	0,014389  	-3532,586274  	-1,917017  	-0,013765  	-0,049998  	0,394081  	0,199684  	-2,382139  	15045,388217  	879,702134  	0,127590  	-0,047950  
70,580000  	9,704070  	68,335345  	357,499067  	-242,047242  	80,440227  	77,593501  	0,003999  	0,010960  	0,003960  	0,003984  	0,004472  	0,000001  	-0,000000  	26,404956  	20,745176  	23,113064  	35,657337  	52,845998  	49,636607  	51,402099  	57,233266  	68,441138  	66,139530  	68,230984  	74,376862  	25,204769  	22,563575  	24,410175  	76,449305  	-0,006468  	-0,003278  	804,591611  	-30936,857802  	-0,051167  	-0,049989  	0,400422  	0,202897  	-2,423018  	14984,167950  	906,103562  	0,131419  	-0,047942  
71,577000  	9,703244  	68,329928  	1256,818530  	657,183579  	80,440915  	77,589037  	0,003995  	0,011050  	0,003962  	0,003964  	0,004447  	-0,000000  	-0,000000  	26,407824  	20,744567  	23,126366  	35,657130  	52,853589  	49,637215  	51,401335  	57,242358  	68,450966  	66,146181  	68,233349  	74,384479  	25,199355  	22,555337  	24,418972  	76,458059  	-0,022912  	-0,011610  	2849,837118  	-9727,088756  	-0,013767  	-0,050005  	0,380380  	0,192741  	-2,305902  	15178,320884  	811,336628  	0,117674  	-0,047956  
72,577000  	9,702449  	68,328185  	57,725912  	1256,670793  	80,442789  	77,588537  	0,003996  	0,011005  	0,003962  	0,003998  	0,004469  	0,000001  	-0,000000  	26,405493  	20,744280  	23,116946  	35,656753  	52,847269  	49,632980  	51,409011  	57,242579  	68,448608  	66,133661  	68,225430  	74,385962  	25,183117  	22,544442  	24,409536  	76,454172  	0,004932  	0,002499  	-613,437065  	24486,112965  	-0,018197  	-0,049989  	0,397778  	0,201557  	-2,413378  	15082,495889  	838,302944  	0,121586  	-0,047942  
73,579000  	9,702449  	68,322146  	957,045375  	1256,670793  	80,444383  	77,593345  	0,003996  	0,011029  	0,003962  	0,003956  	0,004434  	0,000002  	-0,000000  	26,410423  	20,743631  	23,115798  	35,655207  	52,848475  	49,636881  	51,404383  	57,242766  	68,447558  	66,137889  	68,227485  	74,383595  	25,177938  	22,541784  	24,408654  	76,456548  	-0,029016  	-0,014703  	3608,657225  	4415,155332  	-0,012266  	-0,049980  	0,370021  	0,187493  	-2,242450  	15133,938543  	845,639420  	0,122650  	-0,047934  
74,578000  	9,702449  	68,318971  	-242,047242  	1256,670793  	80,449133  	77,592970  	0,003998  	0,011017  	0,003963  	0,003994  	0,004462  	-0,000000  	-0,000000  	26,404206  	20,730011  	23,112833  	35,645663  	52,835275  	49,625840  	51,392706  	57,236826  	68,443395  	66,129746  	68,222150  	74,370208  	25,163882  	22,525216  	24,397321  	76,440655  	0,001806  	0,000915  	-224,629546  	35510,660802  	-0,021698  	-0,050003  	0,392011  	0,198635  	-2,379987  	15108,628950  	881,375613  	0,127833  	-0,047954  
75,577000  	9,702082  	68,317290  	-242,047242  	1256,670793  	80,456038  	77,594469  	0,003995  	0,011046  	0,003964  	0,003988  	0,004426  	0,000001  	-0,000000  	26,415148  	20,746510  	23,118163  	35,660358  	52,852610  	49,640003  	51,404093  	57,251772  	68,450844  	66,135343  	68,219785  	74,379041  	25,164019  	22,516726  	24,407927  	76,460148  	-0,003365  	-0,001705  	418,477267  	35504,776303  	-0,021694  	-0,049993  	0,363290  	0,184082  	-2,209791  	15170,672684  	826,094313  	0,119815  	-0,047946  
76,577000  	9,702204  	68,313244  	957,045375  	1256,670793  	80,452788  	77,599214  	0,003995  	0,011043  	0,003964  	0,003959  	0,004466  	0,000001  	-0,000000  	26,414316  	20,748453  	23,121599  	35,656903  	52,856176  	49,631910  	51,407356  	57,250135  	68,451845  	66,144892  	68,220103  	74,378643  	25,171357  	22,511857  	24,402032  	76,448472  	-0,026757  	-0,013558  	3327,214769  	4415,808999  	-0,012268  	-0,049988  	0,395592  	0,200449  	-2,399549  	15162,757776  	822,853272  	0,119345  	-0,047941  
77,578000  	9,702113  	68,308014  	57,725912  	-242,047242  	80,448476  	77,605302  	0,003995  	0,011061  	0,003963  	0,004037  	0,004468  	0,000001  	-0,000000  	26,417168  	20,746262  	23,117418  	35,652954  	52,852452  	49,629224  	51,400785  	57,241124  	68,450615  	66,144038  	68,222308  	74,379388  	25,167735  	22,489205  	24,409355  	76,450847  	0,037010  	0,018753  	-4601,710478  	-27696,252958  	-0,093548  	-0,049993  	0,397194  	0,201261  	-2,400493  	15203,128898  	819,795818  	0,118901  	-0,047945  
78,581000  	9,700950  	68,307703  	657,272221  	-242,047242  	80,448164  	77,601680  	0,003997  	0,011038  	0,003965  	0,004035  	0,004428  	0,000002  	-0,000000  	26,404230  	20,744816  	23,115046  	35,660035  	52,853599  	49,629548  	51,407386  	57,239248  	68,451755  	66,134427  	68,223372  	74,380022  	25,164845  	22,484089  	24,399153  	76,451051  	0,035204  	0,017838  	-4377,245202  	-32732,789024  	-0,035210  	-0,049981  	0,364950  	0,184923  	-2,208187  	15152,721238  	855,567317  	0,124090  	-0,047935  
79,579000  	9,700583  	68,313586  	657,272221  	-242,047242  	80,450070  	77,597872  	0,003996  	0,011054  	0,003965  	0,004000  	0,004458  	0,000001  	-0,000000  	26,407744  	20,732835  	23,124598  	35,659200  	52,848719  	49,627799  	51,407443  	57,250786  	68,451384  	66,143239  	68,228009  	74,375034  	25,154400  	22,492807  	24,413163  	76,454342  	0,006495  	0,003291  	-807,697500  	-32733,832083  	-0,035211  	-0,049982  	0,388989  	0,197104  	-2,358362  	15186,424680  	845,477015  	0,122626  	-0,047936  
80,582000  	9,701623  	68,321555  	1256,818530  	956,927186  	80,447758  	77,602492  	0,003996  	0,011064  	0,003964  	0,004030  	0,004431  	0,000001  	-0,000000  	26,407612  	20,735592  	23,117023  	35,657852  	52,854526  	49,621385  	51,405150  	57,239103  	68,440819  	66,147507  	68,225182  	74,375861  	25,142411  	22,476350  	24,414237  	76,448295  	0,030565  	0,015487  	-3801,257629  	-4419,439066  	-0,012267  	-0,049985  	0,367571  	0,186251  	-2,223091  	15208,283350  	830,338031  	0,120430  	-0,047938  
81,576000  	9,701593  	68,324263  	1256,818530  	1256,670793  	80,449289  	77,607237  	0,003995  	0,011037  	0,003963  	0,003994  	0,004427  	0,000001  	-0,000000  	26,405198  	20,745428  	23,118504  	35,655790  	52,857971  	49,629349  	51,412239  	57,239538  	68,452420  	66,147367  	68,220212  	74,385867  	25,151978  	22,474483  	24,405034  	76,453074  	0,001996  	0,001011  	-248,212858  	-1,993090  	-0,011066  	-0,049987  	0,364563  	0,184727  	-2,202413  	15150,937059  	817,790468  	0,118610  	-0,047940  
82,577000  	9,700369  	68,320030  	1256,818530  	657,183579  	80,447726  	77,599682  	0,003996  	0,011054  	0,003965  	0,004009  	0,004476  	0,000001  	-0,000000  	26,415632  	20,745154  	23,127473  	35,648852  	52,853758  	49,621226  	51,408202  	57,244234  	68,444274  	66,140310  	68,223110  	74,373118  	25,141457  	22,466415  	24,411510  	76,449347  	0,013637  	0,006910  	-1696,041159  	-9723,609431  	-0,013762  	-0,049985  	0,403554  	0,204484  	-2,443104  	15186,650355  	842,235973  	0,122156  	-0,047939  
83,577000  	9,700002  	68,319096  	357,499067  	-242,047242  	80,445914  	77,602430  	0,003996  	0,011019  	0,003963  	0,004043  	0,004481  	0,000001  	-0,000000  	26,425063  	20,750688  	23,128694  	35,661952  	52,863383  	49,625376  	51,409127  	57,248658  	68,453571  	66,148967  	68,222341  	74,388460  	25,139614  	22,465815  	24,406204  	76,461467  	0,041148  	0,020850  	-5117,362598  	-30938,958335  	-0,051171  	-0,049993  	0,407600  	0,206534  	-2,463649  	15111,217495  	835,224307  	0,121139  	-0,047945  
84,578000  	9,700981  	68,325695  	-242,047242  	-242,047242  	80,447039  	77,606987  	0,003995  	0,011026  	0,003963  	0,003968  	0,004452  	0,000001  	-0,000000  	26,412946  	20,740102  	23,129262  	35,660248  	52,852006  	49,615560  	51,410507  	57,242918  	68,449679  	66,153675  	68,221399  	74,388163  	25,133477  	22,459072  	24,407781  	76,448675  	-0,019099  	-0,009678  	2375,491359  	-0,000000  	-0,544267  	-0,049983  	0,384179  	0,194666  	-2,319284  	15126,743816  	817,931690  	0,118631  	-0,047937  
85,580000  	9,700430  	68,334006  	1256,818530  	1256,670793  	80,447383  	77,598121  	0,003996  	0,010998  	0,003965  	0,004028  	0,004495  	-0,000001  	-0,000000  	26,412380  	20,744618  	23,125740  	35,665252  	52,850752  	49,626103  	51,406534  	57,242180  	68,453843  	66,148629  	68,228163  	74,382134  	25,116322  	22,466288  	24,410193  	76,453512  	0,029319  	0,014856  	-3647,175187  	-1,994042  	-0,011071  	-0,050014  	0,417963  	0,211785  	-2,531413  	15067,034654  	839,150275  	0,121708  	-0,047963  
86,576000  	9,698717  	68,332886  	1256,818530  	1256,670793  	80,443383  	77,590567  	0,003993  	0,011041  	0,003964  	0,003971  	0,004420  	-0,000000  	-0,000000  	26,414887  	20,746414  	23,122934  	35,664398  	52,857749  	49,625038  	51,412938  	57,250724  	68,454348  	66,141017  	68,223287  	74,381342  	25,107258  	22,463972  	24,410595  	76,454009  	-0,017235  	-0,008733  	2143,933277  	-1,993742  	-0,011069  	-0,050005  	0,359054  	0,181935  	-2,177340  	15159,070567  	781,835381  	0,113396  	-0,047956  
87,577000  	9,699176  	68,328777  	357,499067  	357,439972  	80,438727  	77,597497  	0,003997  	0,011049  	0,003964  	0,004021  	0,004434  	0,000001  	-0,000000  	26,411729  	20,736257  	23,112829  	35,654739  	52,853437  	49,621744  	51,413319  	57,247636  	68,444529  	66,136596  	68,213450  	74,373364  	25,094902  	22,449311  	24,399782  	76,445449  	0,024051  	0,012187  	-2991,606462  	-1,684709  	-0,026843  	-0,049982  	0,370220  	0,187593  	-2,235938  	15176,819683  	871,949053  	0,126466  	-0,047936  
88,579000  	9,698258  	68,321306  	957,045375  	956,927186  	80,440665  	77,600744  	0,003996  	0,011010  	0,003961  	0,003993  	0,004497  	0,000001  	-0,000000  	26,410574  	20,735763  	23,117743  	35,656307  	52,854769  	49,627836  	51,410962  	57,244721  	68,447500  	66,142364  	68,218554  	74,376030  	25,087170  	22,437122  	24,402975  	76,455991  	0,001360  	0,000689  	-169,208007  	-1,916686  	-0,013763  	-0,049988  	0,419996  	0,212815  	-2,535393  	15093,445033  	836,989580  	0,121395  	-0,047942  
89,577000  	9,698105  	68,316668  	1256,818530  	956,927186  	80,439821  	77,602024  	0,003994  	0,011057  	0,003962  	0,004010  	0,004455  	0,000000  	-0,000000  	26,409253  	20,739075  	23,123039  	35,656335  	52,858689  	49,623454  	51,412754  	57,245585  	68,454888  	66,153331  	68,223450  	74,381218  	25,087065  	22,433771  	24,408048  	76,454305  	0,014734  	0,007466  	-1832,402341  	-4420,198194  	-0,012269  	-0,049994  	0,386539  	0,195862  	-2,331678  	15193,081748  	807,389477  	0,117102  	-0,047947  
90,578000  	9,697127  	68,313493  	657,272221  	357,439972  	80,442008  	77,595905  	0,003998  	0,011072  	0,003962  	0,003984  	0,004452  	-0,000000  	-0,000000  	26,413412  	20,736199  	23,120934  	35,656374  	52,857538  	49,623448  	51,410945  	57,248355  	68,445720  	66,150018  	68,220822  	74,375727  	25,086480  	22,424195  	24,405137  	76,445396  	-0,006019  	-0,003050  	748,484937  	-7103,591469  	-0,021695  	-0,050000  	0,384272  	0,194714  	-2,324786  	15227,310822  	873,467188  	0,126686  	-0,047952  
91,577000  	9,697218  	68,305649  	657,272221  	1256,670793  	80,441977  	77,591659  	0,003999  	0,011038  	0,003964  	0,004003  	0,004452  	-0,000000  	-0,000000  	26,410688  	20,734961  	23,112803  	35,661153  	52,851367  	49,618981  	51,410677  	57,243575  	68,436954  	66,141015  	68,216174  	74,370340  	25,064358  	22,409437  	24,400161  	76,442693  	0,008675  	0,004396  	-1078,687751  	9722,798353  	-0,013766  	-0,050001  	0,384516  	0,194837  	-2,329703  	15153,370674  	911,251099  	0,132166  	-0,047953  
92,590000  	9,697157  	68,304839  	1256,818530  	1256,670793  	80,440540  	77,593595  	0,003995  	0,011083  	0,003960  	0,004017  	0,004445  	0,000000  	-0,000000  	26,408073  	20,737112  	23,117882  	35,661569  	52,851777  	49,614360  	51,413962  	57,247005  	68,444670  	66,144864  	68,219896  	74,371912  	25,047932  	22,400518  	24,404552  	76,447272  	0,020752  	0,010515  	-2580,363643  	-1,993463  	-0,011068  	-0,049997  	0,378636  	0,191857  	-2,291361  	15250,494539  	826,200230  	0,119830  	-0,047949  
93,579000  	9,695781  	68,306396  	957,045375  	956,927186  	80,439165  	77,598527  	0,003996  	0,011011  	0,003962  	0,003980  	0,004513  	0,000001  	-0,000000  	26,410000  	20,734066  	23,119153  	35,654668  	52,854071  	49,620384  	51,411844  	57,253563  	68,440457  	66,150388  	68,221788  	74,376157  	25,041108  	22,390977  	24,406170  	76,449432  	-0,009499  	-0,004813  	1181,187463  	-1,916613  	-0,013762  	-0,049986  	0,432686  	0,219245  	-2,612654  	15095,200207  	839,496269  	0,121759  	-0,047940  
94,582000  	9,696148  	68,316108  	357,499067  	-242,047242  	80,438103  	77,596155  	0,003994  	0,011025  	0,003960  	0,004032  	0,004436  	-0,000000  	-0,000000  	26,406841  	20,733410  	23,113101  	35,652633  	52,853685  	49,625470  	51,405072  	57,249222  	68,432855  	66,152656  	68,218263  	74,383015  	25,035686  	22,392626  	24,403164  	76,444691  	0,032811  	0,016626  	-4080,662234  	-30944,081643  	-0,051179  	-0,050002  	0,371753  	0,188370  	-2,245761  	15124,208329  	790,188654  	0,114607  	-0,047953  
95,578000  	9,696698  	68,323018  	1256,818530  	-242,047242  	80,436915  	77,595218  	0,003997  	0,011055  	0,003960  	0,003995  	0,004465  	-0,000000  	-0,000000  	26,413559  	20,744163  	23,126744  	35,662335  	52,863338  	49,627123  	51,409618  	57,254726  	68,445887  	66,163679  	68,224801  	74,391322  	25,050531  	22,419741  	24,414140  	76,451762  	0,002210  	0,001120  	-274,829852  	-35510,787743  	-0,021695  	-0,050002  	0,394885  	0,200091  	-2,385294  	15189,822543  	869,858970  	0,126162  	-0,047953  
96,578000  	9,695353  	68,327749  	1256,818530  	956,927186  	80,438353  	77,585853  	0,003995  	0,011003  	0,003959  	0,004005  	0,004446  	0,000000  	-0,000000  	26,418335  	20,744147  	23,123131  	35,666291  	52,864717  	49,620317  	51,419416  	57,256174  	68,444392  	66,164334  	68,224013  	74,390391  	25,048981  	22,440826  	24,415026  	76,455056  	0,010923  	0,005535  	-1358,753376  	-4420,272650  	-0,012269  	-0,049995  	0,379541  	0,192316  	-2,301317  	15078,563904  	818,546005  	0,118720  	-0,047947  
97,580000  	9,694160  	68,325197  	-242,047242  	57,696365  	80,439290  	77,589224  	0,003995  	0,011025  	0,003962  	0,004031  	0,004406  	0,000002  	-0,000000  	26,405406  	20,731208  	23,111921  	35,659897  	52,850011  	49,613227  	51,407617  	57,244290  	68,438186  	66,147695  	68,211584  	74,379160  	25,037358  	22,450833  	24,399427  	76,439645  	0,032053  	0,016241  	-3987,083003  	27687,694973  	-0,093528  	-0,049976  	0,347710  	0,176187  	-2,106515  	15124,344158  	822,789722  	0,119336  	-0,047931  
98,578000  	9,693915  	68,327127  	357,499067  	1256,670793  	80,440977  	77,589287  	0,003994  	0,011060  	0,003964  	0,003988  	0,004459  	0,000000  	-0,000000  	26,417537  	20,743846  	23,124447  	35,667071  	52,857304  	49,619861  	51,409102  	57,253884  	68,436461  	66,152312  	68,213998  	74,378243  	25,057947  	22,478239  	24,401030  	76,455698  	-0,002765  	-0,001401  	343,915422  	16229,844386  	-0,015674  	-0,049996  	0,389797  	0,197513  	-2,362833  	15200,445555  	798,280667  	0,115781  	-0,047948  
99,575000  	9,694557  	68,331329  	357,499067  	1256,670793  	80,443633  	77,586852  	0,003994  	0,011033  	0,003962  	0,003994  	0,004486  	0,000002  	-0,000001  	26,416116  	20,752965  	23,120818  	35,667476  	52,868328  	49,627154  	51,416405  	57,253043  	68,436527  	66,155165  	68,220679  	74,380642  	25,069220  	22,509096  	24,401362  	76,458651  	0,002072  	0,001050  	-257,791535  	16222,678358  	-0,015668  	-0,049971  	0,410942  	0,208227  	-2,495456  	15142,038801  	793,676834  	0,115113  	-0,047927  
100,580000  	9,694374  	68,336932  	-242,047242  	57,696365  	80,441758  	77,593407  	0,003997  	0,011011  	0,003964  	0,003992  	0,004461  	0,000002  	-0,000000  	26,417817  	20,745933  	23,116091  	35,667481  	52,869090  	49,618166  	51,408870  	57,254486  	68,443517  	66,152948  	68,229891  	74,383726  	25,068414  	22,537175  	24,400850  	76,445984  	0,000429  	0,000217  	-53,342873  	27688,715264  	-0,093532  	-0,049979  	0,391158  	0,198203  	-2,368311  	15094,845777  	852,036770  	0,123577  	-0,047933  
101,578000  	9,693273  	68,342566  	957,045375  	57,696365  	80,441821  	77,594844  	0,003995  	0,011043  	0,003962  	0,003980  	0,004482  	0,000001  	-0,000001  	26,410268  	20,734788  	23,116777  	35,657499  	52,858702  	49,617567  	51,407650  	57,250838  	68,429136  	66,153586  	68,226210  	74,378571  	25,062491  	22,571767  	24,392348  	76,446843  	-0,009778  	-0,004955  	1216,678453  	-21302,945922  	-0,021691  	-0,049990  	0,407959  	0,206716  	-2,468843  	15163,836632  	810,538725  	0,117559  	-0,047943  
102,575000  	9,693945  	68,347547  	-242,047242  	1256,670793  	80,441758  	77,588537  	0,003997  	0,011035  	0,003963  	0,003993  	0,004480  	0,000001  	-0,000000  	26,413795  	20,749188  	23,117670  	35,666877  	52,863844  	49,621909  	51,408000  	57,244102  	68,425918  	66,154344  	68,226636  	74,388842  	25,067524  	22,610079  	24,409238  	76,460228  	0,001218  	0,000617  	-151,509726  	35498,800793  	-0,021690  	-0,049984  	0,406499  	0,205976  	-2,465402  	15146,956259  	855,306056  	0,124052  	-0,047938  
103,579000  	9,692844  	68,349415  	657,272221  	1256,670793  	80,437946  	77,590848  	0,003996  	0,011072  	0,003964  	0,003964  	0,004470  	0,000001  	-0,000001  	26,409664  	20,742887  	23,109468  	35,652422  	52,863542  	49,614528  	51,407383  	57,241617  	68,418373  	66,162816  	68,231547  	74,378069  	25,076329  	22,630507  	24,411900  	76,453501  	-0,022592  	-0,011447  	2811,421286  	9720,792705  	-0,013763  	-0,049990  	0,398717  	0,202033  	-2,413017  	15225,567675  	844,834455  	0,122533  	-0,047943  
104,577000  	9,693273  	68,351158  	1256,818530  	1256,670793  	80,434447  	77,598277  	0,003997  	0,011058  	0,003962  	0,004022  	0,004471  	0,000001  	-0,000000  	26,411265  	20,733828  	23,114357  	35,656157  	52,859009  	49,620865  	51,416527  	57,239252  	68,417952  	66,156158  	68,226324  	74,376930  	25,069176  	22,646639  	24,404964  	76,450644  	0,024833  	0,012583  	-3090,356706  	-1,993130  	-0,011066  	-0,049988  	0,399579  	0,202470  	-2,408953  	15195,429762  	868,086635  	0,125905  	-0,047941  
105,578000  	9,693854  	68,349695  	57,725912  	57,696365  	80,432916  	77,600213  	0,003995  	0,011036  	0,003965  	0,003947  	0,004441  	0,000002  	-0,000000  	26,408294  	20,755152  	23,118410  	35,664731  	52,867918  	49,622694  	51,418128  	57,248364  	68,432850  	66,170168  	68,233086  	74,384806  	25,080755  	22,664484  	24,400857  	76,456954  	-0,036628  	-0,018560  	4558,108153  	-1,524498  	-0,051162  	-0,049980  	0,375737  	0,190389  	-2,262449  	15147,991253  	822,832088  	0,119342  	-0,047935  
106,579000  	9,694894  	68,344527  	657,272221  	657,183579  	80,433166  	77,597091  	0,003993  	0,011035  	0,003962  	0,003967  	0,004480  	0,000001  	-0,000001  	26,409397  	20,738924  	23,113143  	35,659744  	52,864728  	49,623558  	51,413364  	57,247555  	68,413776  	66,165492  	68,228945  	74,378735  	25,090438  	22,683286  	24,397475  	76,453675  	-0,019755  	-0,010010  	2458,058157  	-1,810169  	-0,018196  	-0,049985  	0,406208  	0,205829  	-2,448833  	15146,248106  	784,589207  	0,113795  	-0,047938  
107,577000  	9,694985  	68,343313  	657,272221  	657,183579  	80,436603  	77,589318  	0,003995  	0,011027  	0,003960  	0,004034  	0,004455  	0,000001  	-0,000000  	26,402490  	20,736797  	23,111072  	35,658757  	52,853671  	49,619480  	51,416938  	57,245101  	68,407273  	66,156702  	68,220296  	74,374128  	25,075532  	22,664261  	24,392843  	76,452478  	0,034359  	0,017410  	-4275,165083  	-1,810122  	-0,018195  	-0,049983  	0,386987  	0,196089  	-2,342180  	15130,335520  	828,834018  	0,120212  	-0,047937  
108,579000  	9,693762  	68,348543  	1256,818530  	1256,670793  	80,439165  	77,589006  	0,003996  	0,011013  	0,003963  	0,003977  	0,004449  	-0,000000  	-0,000000  	26,403394  	20,731871  	23,105635  	35,655284  	52,856696  	49,611860  	51,411600  	57,246482  	68,401074  	66,153599  	68,228799  	74,380818  	25,074180  	22,646652  	24,394057  	76,449412  	-0,012406  	-0,006286  	1543,800784  	-1,993593  	-0,011069  	-0,050001  	0,382163  	0,193645  	-2,315314  	15099,163320  	829,829632  	0,120357  	-0,047952  
109,576000  	9,693120  	68,348823  	1256,818530  	956,927186  	80,444602  	77,591222  	0,003992  	0,010994  	0,003963  	0,003990  	0,004462  	0,000000  	-0,000000  	26,410120  	20,731741  	23,113018  	35,663403  	52,866652  	49,613467  	51,420430  	57,249861  	68,407583  	66,158875  	68,229128  	74,378972  	25,101697  	22,636923  	24,397581  	76,452024  	-0,001392  	-0,000705  	173,217329  	-4420,581480  	-0,012270  	-0,049999  	0,392117  	0,198689  	-2,378308  	15058,350753  	749,672101  	0,108731  	-0,047951  
110,577000  	9,692753  	68,342722  	1256,818530  	357,439972  	80,448039  	77,592408  	0,003993  	0,011043  	0,003963  	0,003977  	0,004466  	0,000001  	-0,000000  	26,415875  	20,736007  	23,123137  	35,670042  	52,873022  	49,621817  	51,423250  	57,247657  	68,413340  	66,168792  	68,236617  	74,381444  	25,099153  	22,634520  	24,396881  	76,459185  	-0,012283  	-0,006224  	1528,401343  	-16229,701840  	-0,015671  	-0,049984  	0,395040  	0,200170  	-2,397930  	15163,613079  	777,817618  	0,112813  	-0,047938  
111,578000  	9,692294  	68,336745  	357,499067  	1256,670793  	80,448289  	77,596186  	0,003995  	0,011063  	0,003963  	0,003990  	0,004507  	0,000001  	-0,000000  	26,412399  	20,729781  	23,111215  	35,656350  	52,864903  	49,614807  	51,417790  	57,245743  	68,408800  	66,167072  	68,230874  	74,377772  	25,088790  	22,618467  	24,398125  	76,458279  	-0,001150  	-0,000583  	143,136753  	16229,202546  	-0,015674  	-0,049994  	0,427606  	0,216671  	-2,592403  	15207,694755  	817,846956  	0,118619  	-0,047946  
112,582000  	9,692722  	68,330893  	957,045375  	1256,670793  	80,445914  	77,597185  	0,003994  	0,011042  	0,003965  	0,004012  	0,004463  	0,000002  	-0,000000  	26,412421  	20,735638  	23,105425  	35,652765  	52,856447  	49,616020  	51,423440  	57,246800  	68,400557  	66,160330  	68,230310  	74,378712  	25,093855  	22,608398  	24,396380  	76,456427  	0,016486  	0,008353  	-2050,927773  	4415,037924  	-0,012266  	-0,049978  	0,393265  	0,199270  	-2,381387  	15161,353496  	797,913490  	0,115728  	-0,047933  
113,577000  	9,693609  	68,322987  	957,045375  	1256,670793  	80,445852  	77,597435  	0,003996  	0,011053  	0,003963  	0,003970  	0,004468  	0,000002  	-0,000000  	26,404324  	20,739697  	23,106504  	35,660536  	52,863518  	49,622452  	51,418924  	57,245404  	68,401119  	66,157613  	68,228807  	74,377550  	25,098018  	22,603657  	24,382545  	76,457905  	-0,017311  	-0,008772  	2153,244227  	4414,997494  	-0,012266  	-0,049978  	0,396566  	0,200943  	-2,401110  	15186,138164  	849,226455  	0,123170  	-0,047932  
114,577000  	9,693181  	68,323734  	-242,047242  	1256,670793  	80,443539  	77,601680  	0,003997  	0,011064  	0,003963  	0,003977  	0,004455  	0,000000  	-0,000000  	26,402300  	20,733587  	23,107204  	35,656917  	52,859875  	49,619818  	51,418891  	57,239541  	68,400794  	66,162879  	68,226528  	74,383363  	25,097884  	22,590874  	24,379899  	76,450830  	-0,011957  	-0,006059  	1487,345888  	35505,540794  	-0,021694  	-0,049995  	0,386738  	0,195963  	-2,336214  	15207,991883  	866,533195  	0,125680  	-0,047947  
115,578000  	9,692263  	68,335967  	657,272221  	357,439972  	80,439727  	77,607206  	0,003997  	0,011051  	0,003961  	0,004029  	0,004464  	0,000001  	-0,000001  	26,403221  	20,734124  	23,108845  	35,663909  	52,864178  	49,621154  	51,415598  	57,239734  	68,395640  	66,167614  	68,228145  	74,384791  	25,098636  	22,581392  	24,387410  	76,447720  	0,030418  	0,015413  	-3784,525110  	-7101,666245  	-0,021690  	-0,049985  	0,393753  	0,199518  	-2,370781  	15180,722664  	852,954712  	0,123711  	-0,047939  
116,577000  	9,691957  	68,348356  	57,725912  	-242,047242  	80,436915  	77,599651  	0,003995  	0,011069  	0,003960  	0,003996  	0,004438  	-0,000000  	-0,000000  	26,412681  	20,738557  	23,118698  	35,664385  	52,867964  	49,621811  	51,414702  	57,248077  	68,400961  	66,176414  	68,237359  	74,380718  	25,102002  	22,580827  	24,399031  	76,452919  	0,003613  	0,001831  	-449,671441  	-27702,470154  	-0,093569  	-0,050005  	0,372995  	0,188999  	-2,249552  	15218,982058  	818,482455  	0,118711  	-0,047956  
117,577000  	9,695047  	68,356667  	957,045375  	1256,670793  	80,434478  	77,600338  	0,003995  	0,011055  	0,003961  	0,004032  	0,004471  	-0,000001  	-0,000001  	26,414446  	20,737145  	23,122453  	35,657720  	52,857442  	49,619314  	51,414707  	57,245608  	68,398599  	66,170378  	68,236973  	74,378059  	25,099963  	22,581834  	24,398393  	76,450922  	0,032353  	0,016394  	-4026,558835  	4417,923958  	-0,012274  	-0,050015  	0,399453  	0,202406  	-2,406471  	15190,537064  	808,010853  	0,117192  	-0,047964  
118,577000  	9,693273  	68,360652  	-242,047242  	657,183579  	80,433666  	77,600962  	0,003996  	0,011057  	0,003962  	0,004004  	0,004463  	-0,000001  	-0,000001  	26,407544  	20,736210  	23,120612  	35,658531  	52,856512  	49,622628  	51,414662  	57,235943  	68,397998  	66,163863  	68,232593  	74,381843  	25,091908  	22,580862  	24,391441  	76,446974  	0,009993  	0,005064  	-1243,858402  	32749,816930  	-0,035232  	-0,050011  	0,392677  	0,198972  	-2,364451  	15193,160274  	831,926777  	0,120661  	-0,047960  
119,576000  	9,692447  	68,360745  	-242,047242  	657,183579  	80,435978  	77,597403  	0,003995  	0,011034  	0,003962  	0,003978  	0,004468  	0,000001  	-0,000000  	26,412159  	20,742284  	23,127327  	35,657997  	52,859049  	49,625209  	51,417258  	57,236999  	68,407253  	66,173248  	68,237277  	74,387992  	25,093725  	22,589563  	24,398133  	76,452550  	-0,011463  	-0,005809  	1426,828587  	32737,528191  	-0,035219  	-0,049990  	0,397033  	0,201179  	-2,395631  	15144,492932  	827,266455  	0,119985  	-0,047942  
120,578000  	9,692936  	68,353088  	957,045375  	1256,670793  	80,434165  	77,592721  	0,003996  	0,011023  	0,003961  	0,004014  	0,004452  	0,000002  	-0,000000  	26,415251  	20,745058  	23,129532  	35,657364  	52,855288  	49,623779  	51,421331  	57,239990  	68,404447  	66,176516  	68,240213  	74,386738  	25,092709  	22,605872  	24,401695  	76,455395  	0,017678  	0,008958  	-2200,055811  	4415,155008  	-0,012266  	-0,049980  	0,383974  	0,194562  	-2,319176  	15120,174471  	835,655034  	0,121202  	-0,047934  
121,577000  	9,693762  	68,343656  	-242,047242  	1256,670793  	80,433666  	77,592065  	0,003999  	0,011002  	0,003961  	0,004000  	0,004453  	0,000002  	-0,000000  	26,410899  	20,737877  	23,122689  	35,658739  	52,861186  	49,624362  	51,422266  	57,237972  	68,399696  	66,172193  	68,238145  	74,383597  	25,078540  	22,625123  	24,390563  	76,450375  	0,006952  	0,003523  	-865,100321  	35495,064149  	-0,021688  	-0,049978  	0,384898  	0,195031  	-2,324886  	15074,513067  	904,401838  	0,131172  	-0,047933  
122,577000  	9,694129  	68,339422  	357,499067  	1256,670793  	80,432041  	77,588943  	0,003995  	0,011027  	0,003960  	0,003953  	0,004442  	0,000001  	-0,000000  	26,414334  	20,730513  	23,128677  	35,655742  	52,859311  	49,623250  	51,418630  	57,236245  	68,399911  	66,171833  	68,235784  	74,384817  	25,077657  	22,662701  	24,386800  	76,451523  	-0,031700  	-0,016063  	3944,200974  	16226,872903  	-0,015672  	-0,049986  	0,376470  	0,190760  	-2,275176  	15129,359951  	828,954056  	0,120230  	-0,047939  
123,578000  	9,693762  	68,331485  	1256,818530  	1256,670793  	80,434853  	77,581826  	0,003992  	0,011076  	0,003961  	0,003987  	0,004474  	0,000002  	-0,000000  	26,411302  	20,729484  	23,131518  	35,660076  	52,853855  	49,623168  	51,427350  	57,229651  	68,393055  	66,175690  	68,233466  	74,383316  	25,078351  	22,699640  	24,387734  	76,454094  	-0,003904  	-0,001978  	485,733301  	-1,992874  	-0,011065  	-0,049981  	0,401323  	0,203353  	-2,433839  	15235,103341  	750,018094  	0,108781  	-0,047935  
124,582000  	9,693640  	68,319220  	1256,818530  	1256,670793  	80,439415  	77,577143  	0,003995  	0,011058  	0,003962  	0,004005  	0,004454  	0,000001  	-0,000000  	26,414277  	20,739254  	23,114208  	35,660011  	52,862279  	49,622725  	51,430858  	57,235089  	68,393475  	66,178907  	68,233105  	74,384083  	25,084621  	22,720734  	24,388747  	76,450243  	0,010758  	0,005451  	-1338,108013  	-1,993196  	-0,011066  	-0,049990  	0,385812  	0,195494  	-2,347355  	15195,734671  	825,825992  	0,119776  	-0,047943  
125,577000  	9,694037  	68,307579  	1256,818530  	1256,670793  	80,439759  	77,580452  	0,003995  	0,011042  	0,003964  	0,003951  	0,004480  	0,000001  	-0,000000  	26,413642  	20,738948  	23,122542  	35,660319  	52,860637  	49,626942  	51,430082  	57,236291  	68,397494  	66,178474  	68,231842  	74,380923  	25,095526  	22,728518  	24,393667  	76,458306  	-0,033100  	-0,016772  	4116,142650  	-1,993238  	-0,011067  	-0,049991  	0,406308  	0,205879  	-2,469492  	15161,649208  	812,275754  	0,117811  	-0,047944  
126,584000  	9,692936  	68,305151  	657,272221  	657,183579  	80,440509  	77,582825  	0,003997  	0,011046  	0,003965  	0,004000  	0,004466  	0,000001  	-0,000000  	26,410222  	20,729288  	23,117847  	35,660868  	52,862548  	49,617775  	51,424426  	57,230322  	68,383416  	66,171306  	68,231524  	74,384687  	25,102652  	22,712732  	24,394853  	76,454158  	0,006594  	0,003341  	-819,977415  	-1,810434  	-0,018198  	-0,049993  	0,395220  	0,200261  	-2,400739  	15169,733195  	863,052076  	0,125175  	-0,047945  
127,577000  	9,694037  	68,313275  	657,272221  	-242,047242  	80,441415  	77,588007  	0,003996  	0,011021  	0,003964  	0,003989  	0,004447  	0,000001  	-0,000001  	26,409778  	20,740316  	23,114125  	35,659354  	52,859378  	49,608563  	51,421204  	57,230775  	68,389965  	66,171193  	68,234786  	74,383892  	25,099646  	22,708000  	24,388855  	76,447805  	-0,002226  	-0,001128  	276,792873  	-32737,416848  	-0,035215  	-0,049989  	0,380430  	0,192767  	-2,307446  	15117,148724  	834,440526  	0,121025  	-0,047942  
128,578000  	9,694894  	68,324107  	1256,818530  	-242,047242  	80,439227  	77,593314  	0,003994  	0,011057  	0,003961  	0,003982  	0,004462  	0,000003  	-0,000000  	26,413481  	20,738574  	23,119856  	35,650312  	52,854207  	49,617610  	51,416712  	57,230272  	68,394014  	66,171104  	68,241184  	74,383358  	25,113765  	22,702180  	24,390040  	76,449491  	-0,007703  	-0,003903  	958,199060  	-35488,986369  	-0,021682  	-0,049967  	0,391979  	0,198619  	-2,371250  	15194,720193  	799,410442  	0,115945  	-0,047924  
129,580000  	9,694680  	68,329430  	957,045375  	57,696365  	80,439259  	77,597528  	0,003995  	0,011045  	0,003961  	0,003975  	0,004502  	0,000000  	-0,000000  	26,426310  	20,738577  	23,127513  	35,662091  	52,859077  	49,618200  	51,427971  	57,238295  	68,384947  	66,168752  	68,236282  	74,386479  	25,111068  	22,695390  	24,392520  	76,455995  	-0,013474  	-0,006827  	1676,134096  	-21304,743375  	-0,021693  	-0,049995  	0,423876  	0,214781  	-2,560444  	15169,015845  	822,916821  	0,119354  	-0,047947  
130,576000  	9,695047  	68,322769  	357,499067  	657,183579  	80,436321  	77,598028  	0,003996  	0,011056  	0,003963  	0,003971  	0,004455  	0,000001  	-0,000000  	26,399749  	20,729661  	23,112573  	35,647544  	52,851864  	49,618609  	51,420587  	57,222685  	68,390029  	66,171901  	68,236785  	74,371946  	25,106937  	22,659520  	24,385285  	76,453491  	-0,016634  	-0,008428  	2068,948786  	7098,920414  	-0,021692  	-0,049990  	0,386927  	0,196059  	-2,334421  	15192,524280  	837,505040  	0,121470  	-0,047943  
131,577000  	9,694863  	68,310256  	1256,818530  	657,183579  	80,433853  	77,593220  	0,003993  	0,011049  	0,003966  	0,004037  	0,004460  	-0,000000  	-0,000000  	26,419017  	20,739767  	23,128618  	35,668654  	52,857371  	49,619884  	51,427723  	57,239415  	68,390576  	66,176705  	68,242683  	74,386790  	25,135383  	22,653127  	24,392518  	76,469454  	0,036707  	0,018600  	-4564,829258  	-9726,442748  	-0,013766  	-0,050001  	0,390647  	0,197944  	-2,358809  	15176,795630  	780,401979  	0,113188  	-0,047953  
132,577000  	9,695108  	68,304590  	1256,818530  	1256,670793  	80,430103  	77,590411  	0,003995  	0,011037  	0,003962  	0,003962  	0,004451  	0,000001  	-0,000001  	26,414905  	20,746303  	23,130182  	35,662089  	52,864951  	49,622572  	51,416121  	57,223245  	68,382204  	66,172845  	68,232323  	74,380088  	25,130246  	22,625788  	24,387821  	76,454374  	-0,023839  	-0,012079  	2964,199879  	-1,993220  	-0,011066  	-0,049990  	0,383582  	0,194364  	-2,315379  	15150,359783  	827,315883  	0,119992  	-0,047943  
133,577000  	9,694374  	68,309322  	1256,818530  	-242,047242  	80,432353  	77,586383  	0,003995  	0,011091  	0,003962  	0,004011  	0,004449  	0,000001  	-0,000001  	26,410696  	20,737192  	23,123424  	35,655491  	52,858821  	49,603981  	51,417494  	57,227306  	68,380599  	66,177815  	68,240057  	74,388176  	25,133564  	22,591185  	24,382242  	76,452232  	0,015172  	0,007688  	-1886,771318  	-35502,607027  	-0,021690  	-0,049989  	0,381653  	0,193386  	-2,308827  	15268,170789  	817,762223  	0,118606  	-0,047942  
134,580000  	9,693517  	68,312684  	1256,818530  	357,439972  	80,435040  	77,589380  	0,003995  	0,011037  	0,003960  	0,004023  	0,004443  	0,000002  	-0,000000  	26,418764  	20,742801  	23,127852  	35,663522  	52,869103  	49,620340  	51,425302  	57,236557  	68,393236  	66,182538  	68,244147  	74,396021  	25,148717  	22,587289  	24,391959  	76,466307  	0,024873  	0,012603  	-3093,372004  	-16228,111190  	-0,015669  	-0,049979  	0,376958  	0,191008  	-2,280180  	15150,660447  	819,350969  	0,118837  	-0,047933  
135,578000  	9,694435  	68,316139  	1256,818530  	357,439972  	80,435790  	77,586165  	0,003995  	0,011006  	0,003962  	0,003997  	0,004435  	0,000001  	-0,000000  	26,404550  	20,738738  	23,121694  	35,651407  	52,866182  	49,614754  	51,425133  	57,232806  	68,387216  	66,174795  	68,245596  	74,389146  	25,144204  	22,574971  	24,385642  	76,456263  	0,004429  	0,002244  	-550,779925  	-16230,109608  	-0,015671  	-0,049986  	0,370473  	0,187721  	-2,244069  	15083,120564  	817,105542  	0,118511  	-0,047939  
136,578000  	9,695291  	68,317446  	1256,818530  	956,927186  	80,432916  	77,582668  	0,003995  	0,011075  	0,003964  	0,003978  	0,004429  	0,000001  	-0,000000  	26,398682  	20,728543  	23,111397  	35,644373  	52,852069  	49,610160  	51,411201  	57,218260  	68,379352  	66,172732  	68,230890  	74,378853  	25,132968  	22,550800  	24,377500  	76,450374  	-0,011055  	-0,005602  	1374,985003  	-4419,763112  	-0,012268  	-0,049989  	0,366173  	0,185542  	-2,218505  	15233,826401  	810,778802  	0,117594  	-0,047942  
137,577000  	9,694955  	68,319158  	57,725912  	1256,670793  	80,430353  	77,580390  	0,003996  	0,011056  	0,003963  	0,004021  	0,004447  	0,000000  	-0,000000  	26,415751  	20,738318  	23,126286  	35,661573  	52,869226  	49,627357  	51,418348  	57,221964  	68,383131  	66,182078  	68,239696  	74,390025  	25,136891  	22,545976  	24,387694  	76,457572  	0,023346  	0,011829  	-2903,634224  	24490,845942  	-0,018201  	-0,049999  	0,380154  	0,192627  	-2,302983  	15192,034020  	841,607535  	0,122065  	-0,047951  
138,577000  	9,695628  	68,320901  	1256,818530  	1256,670793  	80,430291  	77,588818  	0,003996  	0,011022  	0,003964  	0,004028  	0,004481  	0,000000  	-0,000001  	26,404347  	20,730857  	23,120885  	35,657002  	52,861905  	49,614718  	51,409241  	57,217087  	68,382572  	66,182163  	68,236543  	74,386982  	25,133755  	22,526687  	24,385774  	76,454314  	0,029635  	0,015016  	-3685,918350  	-1,993393  	-0,011067  	-0,049995  	0,407120  	0,206291  	-2,458999  	15117,600074  	850,709285  	0,123385  	-0,047947  
139,581000  	9,696087  	68,329306  	357,499067  	357,439972  	80,433634  	77,593657  	0,003996  	0,011031  	0,003962  	0,003978  	0,004448  	0,000002  	-0,000000  	26,396724  	20,730345  	23,115423  	35,644743  	52,851182  	49,600782  	51,410934  	57,205913  	68,378497  	66,164584  	68,235567  	74,373924  	25,121826  	22,514195  	24,382903  	76,442733  	-0,010946  	-0,005546  	1361,628142  	-1,684307  	-0,026837  	-0,049969  	0,381232  	0,193173  	-2,301429  	15138,225667  	837,787484  	0,121511  	-0,047925  
140,577000  	9,695964  	68,333664  	-242,047242  	956,927186  	80,438571  	77,591285  	0,003993  	0,011077  	0,003961  	0,004008  	0,004448  	0,000001  	-0,000000  	26,400439  	20,735338  	23,117767  	35,654440  	52,856134  	49,607312  	51,413055  	57,214306  	68,385425  	66,163846  	68,235448  	74,385618  	25,112035  	22,510890  	24,388244  	76,456862  	0,013436  	0,006808  	-1671,444993  	34183,261635  	-0,026845  	-0,049984  	0,381192  	0,193153  	-2,307108  	15236,417069  	777,626969  	0,112785  	-0,047937  
141,578000  	9,695475  	68,328746  	1256,818530  	1256,670793  	80,437259  	77,587414  	0,003993  	0,011054  	0,003960  	0,004024  	0,004464  	0,000001  	-0,000000  	26,409496  	20,737606  	23,120699  	35,656488  	52,857398  	49,611230  	51,416103  	57,222902  	68,389529  	66,175747  	68,233046  	74,392777  	25,109313  	22,505498  	24,386047  	76,458571  	0,026338  	0,013346  	-3276,315039  	-1,993099  	-0,011066  	-0,049987  	0,393359  	0,199318  	-2,382886  	15187,599748  	773,969323  	0,112255  	-0,047940  
142,580000  	9,696821  	68,317228  	657,272221  	1256,670793  	80,434447  	77,585103  	0,003995  	0,011025  	0,003961  	0,003991  	0,004460  	-0,000000  	-0,000000  	26,409441  	20,736884  	23,116351  	35,654274  	52,850870  	49,608666  	51,413939  	57,214035  	68,383435  	66,170869  	68,228778  	74,390463  	25,107721  	22,486203  	24,376496  	76,450617  	-0,000937  	-0,000475  	116,512333  	9722,957124  	-0,013766  	-0,050002  	0,390271  	0,197753  	-2,363760  	15124,259972  	812,191021  	0,117798  	-0,047953  
143,576000  	9,697371  	68,305835  	-242,047242  	357,439972  	80,429666  	77,585572  	0,003997  	0,011032  	0,003961  	0,004013  	0,004473  	0,000000  	-0,000000  	26,411404  	20,738477  	23,115592  	35,656611  	52,852869  	49,605009  	51,409547  	57,209323  	68,378132  	66,163296  	68,231026  	74,389729  	25,107675  	22,480998  	24,374779  	76,452041  	0,017400  	0,008817  	-2163,561079  	30940,740145  	-0,051179  	-0,049997  	0,401249  	0,203316  	-2,425776  	15140,988951  	867,380526  	0,125803  	-0,047948  
144,579000  	9,697494  	68,303656  	957,045375  	956,927186  	80,429104  	77,578267  	0,003997  	0,011050  	0,003964  	0,004002  	0,004421  	-0,000000  	-0,000000  	26,413730  	20,735147  	23,116506  	35,654774  	52,854734  	49,600137  	51,411391  	57,215713  	68,379447  	66,160419  	68,234265  	74,383086  	25,109904  	22,480236  	24,371914  	76,451519  	0,008473  	0,004293  	-1053,474215  	-1,917096  	-0,013766  	-0,050000  	0,359997  	0,182413  	-2,181540  	15179,137277  	858,441182  	0,124506  	-0,047952  
145,581000  	9,697769  	68,307765  	1256,818530  	956,927186  	80,429729  	77,570962  	0,003996  	0,011043  	0,003961  	0,004017  	0,004434  	-0,000000  	-0,000000  	26,402545  	20,733222  	23,114671  	35,650623  	52,850665  	49,599126  	51,411743  	57,214073  	68,380634  	66,159035  	68,231866  	74,379166  	25,106566  	22,468734  	24,371731  	76,451779  	0,020313  	0,010293  	-2525,823813  	-4420,967033  	-0,012271  	-0,050004  	0,370169  	0,187567  	-2,249417  	15163,726978  	842,250095  	0,122158  	-0,047955  
146,580000  	9,699543  	68,312372  	657,272221  	357,439972  	80,427979  	77,574208  	0,003996  	0,011030  	0,003963  	0,003956  	0,004502  	-0,000001  	-0,000000  	26,393265  	20,732822  	23,114655  	35,646770  	52,847856  	49,597220  	51,407386  	57,207675  	68,378881  	66,158643  	68,225807  	74,380397  	25,097335  	22,461127  	24,375769  	76,453708  	-0,029305  	-0,014849  	3644,114770  	-7104,605840  	-0,021699  	-0,050008  	0,423542  	0,214612  	-2,569251  	15135,262882  	835,429079  	0,121169  	-0,047959  
147,577000  	9,700094  	68,319376  	657,272221  	357,439972  	80,433697  	77,579672  	0,003998  	0,011036  	0,003964  	0,003996  	0,004478  	0,000002  	-0,000000  	26,394091  	20,722428  	23,113221  	35,642311  	52,846431  	49,590932  	51,403703  	57,205767  	68,374751  	66,154054  	68,221392  	74,373111  	25,089328  	22,453655  	24,374873  	76,446395  	0,003456  	0,001751  	-429,859006  	-7100,346002  	-0,021686  	-0,049975  	0,404782  	0,205106  	-2,455675  	15148,823210  	881,559201  	0,127859  	-0,047930  
148,579000  	9,700522  	68,321430  	1256,818530  	956,927186  	80,433259  	77,583605  	0,003999  	0,011052  	0,003963  	0,003977  	0,004444  	0,000002  	-0,000001  	26,395833  	20,721363  	23,110599  	35,642277  	52,851011  	49,593361  	51,399202  	57,203648  	68,370133  	66,157533  	68,227385  	74,372012  	25,083028  	22,451927  	24,381420  	76,444293  	-0,011934  	-0,006047  	1484,191873  	-4418,610662  	-0,012265  	-0,049974  	0,377736  	0,191401  	-2,288086  	15182,163731  	899,847433  	0,130512  	-0,047929  
149,577000  	9,700124  	68,322364  	957,045375  	956,927186  	80,433072  	77,584385  	0,003995  	0,011049  	0,003961  	0,004028  	0,004463  	0,000000  	-0,000000  	26,401898  	20,726932  	23,108178  	35,641848  	52,854481  	49,599359  	51,398979  	57,208629  	68,376438  	66,161457  	68,228494  	74,378097  	25,077132  	22,454451  	24,378852  	76,445769  	0,029103  	0,014747  	-3619,573343  	-1,917053  	-0,013765  	-0,049999  	0,392792  	0,199030  	-2,378479  	15177,450725  	815,721567  	0,118310  	-0,047951  
150,580000  	9,700858  	68,325788  	-242,047242  	357,439972  	80,433884  	77,581638  	0,003997  	0,011058  	0,003964  	0,003951  	0,004506  	0,000001  	-0,000000  	26,399701  	20,728558  	23,113083  	35,640448  	52,853910  	49,600511  	51,404621  	57,204931  	68,381674  	66,155461  	68,220913  	74,370681  	25,068658  	22,448787  	24,380177  	76,438300  	-0,033010  	-0,016726  	4105,703105  	30936,872226  	-0,051172  	-0,049990  	0,426649  	0,216186  	-2,586723  	15196,975531  	863,503986  	0,125241  	-0,047942  
151,576000  	9,701868  	68,331205  	657,272221  	357,439972  	80,433166  	77,584635  	0,003998  	0,011053  	0,003963  	0,004012  	0,004462  	0,000000  	-0,000000  	26,399128  	20,729639  	23,115915  	35,653998  	52,847012  	49,596464  	51,401084  	57,201933  	68,376833  	66,160178  	68,223243  	74,371435  	25,064250  	22,450064  	24,385081  	76,447520  	0,016199  	0,008208  	-2014,892313  	-7102,861642  	-0,021693  	-0,049995  	0,392107  	0,198683  	-2,374199  	15185,796467  	881,255574  	0,127815  	-0,047947  
152,577000  	9,701073  	68,327905  	1256,818530  	-242,047242  	80,434165  	77,586820  	0,003994  	0,011061  	0,003961  	0,003992  	0,004436  	0,000000  	-0,000000  	26,393624  	20,727590  	23,111917  	35,639086  	52,851116  	49,596849  	51,396671  	57,214262  	68,376578  	66,157019  	68,225505  	74,382788  	25,068019  	22,449256  	24,380285  	76,443909  	0,000320  	0,000162  	-39,812931  	-35505,925080  	-0,021692  	-0,049994  	0,371913  	0,188451  	-2,250994  	15202,715749  	805,708937  	0,116858  	-0,047946  
153,579000  	9,702327  	68,307267  	57,725912  	1256,670793  	80,435947  	77,589942  	0,003991  	0,011033  	0,003962  	0,003974  	0,004440  	0,000001  	-0,000001  	26,399508  	20,739338  	23,109897  	35,638021  	52,866016  	49,601695  	51,415364  	57,219282  	68,380101  	66,153529  	68,231122  	74,385851  	25,071093  	22,451227  	24,384552  	76,452987  	-0,014083  	-0,007136  	1751,057926  	24486,991767  	-0,018198  	-0,049991  	0,374853  	0,189941  	-2,267716  	15142,764641  	729,668023  	0,105829  	-0,047943  
154,580000  	9,702571  	68,294629  	1256,818530  	1256,670793  	80,436197  	77,593564  	0,003992  	0,011047  	0,003963  	0,003981  	0,004457  	-0,000000  	-0,000000  	26,397010  	20,736494  	23,115610  	35,641768  	52,858628  	49,598813  	51,406840  	57,210797  	68,375876  	66,160286  	68,219860  	74,389937  	25,068533  	22,438452  	24,372537  	76,442931  	-0,008558  	-0,004336  	1063,768742  	-1,993769  	-0,011069  	-0,050006  	0,388243  	0,196726  	-2,345945  	15172,473134  	761,690081  	0,110474  	-0,047956  
155,579000  	9,703214  	68,291454  	1256,818530  	1256,670793  	80,437759  	77,591191  	0,003996  	0,011028  	0,003961  	0,004012  	0,004425  	0,000002  	-0,000000  	26,401875  	20,720889  	23,123549  	35,631437  	52,843804  	49,596492  	51,400923  	57,201205  	68,380228  	66,153217  	68,229388  	74,379402  	25,067785  	22,431044  	24,375721  	76,428530  	0,016735  	0,008480  	-2080,187391  	-1,992840  	-0,011064  	-0,049980  	0,363230  	0,184051  	-2,197837  	15130,920578  	836,121066  	0,121269  	-0,047934  
156,579000  	9,703275  	68,285291  	1256,818530  	1256,670793  	80,437946  	77,591441  	0,003995  	0,011077  	0,003960  	0,003956  	0,004468  	0,000002  	-0,000000  	26,411373  	20,724212  	23,108986  	35,649708  	52,855124  	49,610135  	51,407839  	57,208183  	68,369985  	66,155656  	68,224464  	74,387154  	25,058727  	22,440829  	24,379507  	76,442296  	-0,028839  	-0,014613  	3584,312658  	-1,992794  	-0,011064  	-0,049979  	0,396843  	0,201083  	-2,401171  	15236,128431  	816,886648  	0,118479  	-0,047933  
157,581000  	9,704437  	68,283486  	957,045375  	1256,670793  	80,439790  	77,590629  	0,003992  	0,011058  	0,003962  	0,004025  	0,004455  	0,000001  	-0,000000  	26,391597  	20,721931  	23,096658  	35,631586  	52,856171  	49,588948  	51,392766  	57,208778  	68,368786  	66,150648  	68,218161  	74,371905  	25,037242  	22,427154  	24,374395  	76,441591  	0,027194  	0,013780  	-3379,699375  	4415,939991  	-0,012268  	-0,049990  	0,386787  	0,195988  	-2,342511  	15196,354394  	753,619252  	0,109303  	-0,047943  
158,579000  	9,705110  	68,286785  	357,499067  	657,183579  	80,441602  	77,585697  	0,003992  	0,011047  	0,003961  	0,004006  	0,004454  	0,000000  	-0,000000  	26,409916  	20,724785  	23,119881  	35,644235  	52,856105  	49,606034  	51,401389  	57,214538  	68,377963  	66,165206  	68,220027  	74,386658  	25,049129  	22,429525  	24,388283  	76,444530  	0,011662  	0,005909  	-1449,470507  	7099,604658  	-0,021694  	-0,049996  	0,385865  	0,195520  	-2,342454  	15171,438848  	750,194621  	0,108807  	-0,047948  
159,577000  	9,706120  	68,293042  	1256,818530  	-242,047242  	80,445133  	77,585322  	0,003994  	0,011057  	0,003962  	0,003990  	0,004441  	0,000001  	-0,000000  	26,401821  	20,724947  	23,105980  	35,636159  	52,853626  	49,598480  	51,400545  	57,200315  	68,358582  	66,154076  	68,226287  	74,379865  	25,020344  	22,420906  	24,374639  	76,443008  	-0,001835  	-0,000930  	228,030049  	-35498,506268  	-0,021688  	-0,049982  	0,375577  	0,190307  	-2,283116  	15194,439337  	806,916384  	0,117033  	-0,047936  
160,578000  	9,706120  	68,297649  	57,725912  	-242,047242  	80,446195  	77,588319  	0,003995  	0,011032  	0,003959  	0,004001  	0,004472  	-0,000001  	-0,000000  	26,386648  	20,725755  	23,107605  	35,630056  	52,838216  	49,589010  	51,395669  	57,205654  	68,359691  	66,146621  	68,220273  	74,377792  	25,015310  	22,418672  	24,375382  	76,434152  	0,007145  	0,003620  	-888,148291  	-27705,681189  	-0,093580  	-0,050012  	0,399960  	0,202663  	-2,429698  	15140,920329  	814,824809  	0,118180  	-0,047962  
161,576000  	9,708047  	68,293322  	1256,818530  	1256,670793  	80,440102  	77,594656  	0,003991  	0,011066  	0,003959  	0,004004  	0,004472  	-0,000000  	-0,000000  	26,399098  	20,732573  	23,126507  	35,648957  	52,857214  	49,602512  	51,410832  	57,211526  	68,369733  	66,157285  	68,229666  	74,384871  	25,018012  	22,424238  	24,382184  	76,452830  	0,010103  	0,005119  	-1255,719938  	-1,993689  	-0,011069  	-0,050004  	0,399747  	0,202555  	-2,417846  	15212,702766  	733,120898  	0,106330  	-0,047955  
162,579000  	9,707618  	68,288342  	1256,818530  	657,183579  	80,435478  	77,595343  	0,003994  	0,011061  	0,003963  	0,003956  	0,004467  	0,000001  	-0,000001  	26,396222  	20,720977  	23,117009  	35,639825  	52,866011  	49,600344  	51,405636  	57,215448  	68,364505  	66,151876  	68,222321  	74,385012  	25,002363  	22,423126  	24,376606  	76,452327  	-0,028823  	-0,014605  	3582,250036  	-9723,487636  	-0,013761  	-0,049984  	0,396261  	0,200788  	-2,392288  	15202,502808  	800,342506  	0,116080  	-0,047938  
163,578000  	9,707527  	68,290023  	1256,818530  	657,183579  	80,435822  	77,591722  	0,003994  	0,011058  	0,003963  	0,003960  	0,004509  	0,000000  	-0,000000  	26,402414  	20,730849  	23,114218  	35,640191  	52,846087  	49,605689  	51,403137  	57,217497  	68,361146  	66,156553  	68,221881  	74,387777  	25,012345  	22,426279  	24,374390  	76,450420  	-0,025738  	-0,013042  	3198,925440  	-9726,053149  	-0,013765  	-0,049999  	0,429750  	0,217758  	-2,598087  	15196,521351  	802,835072  	0,116441  	-0,047951  
164,576000  	9,708750  	68,295626  	1256,818530  	1256,670793  	80,436072  	77,583917  	0,003996  	0,011051  	0,003963  	0,003983  	0,004447  	0,000001  	-0,000000  	26,392863  	20,718304  	23,105173  	35,634868  	52,837430  	49,595570  	51,393734  	57,209131  	68,349803  	66,143268  	68,208718  	74,381120  	25,005925  	22,415905  	24,372508  	76,441722  	-0,007415  	-0,003757  	921,675290  	-1,993053  	-0,011066  	-0,049986  	0,380238  	0,192669  	-2,305265  	15180,434026  	831,587844  	0,120612  	-0,047939  
165,580000  	9,710188  	68,291921  	57,725912  	57,696365  	80,431978  	77,578641  	0,003995  	0,011043  	0,003964  	0,003991  	0,004458  	0,000002  	-0,000000  	26,388491  	20,710363  	23,108251  	35,626977  	52,840540  	49,584802  	51,392241  	57,206381  	68,352490  	66,139174  	68,211000  	74,378479  	24,998747  	22,407035  	24,366525  	76,439984  	-0,000800  	-0,000405  	99,429947  	-1,524437  	-0,051160  	-0,049978  	0,389116  	0,197168  	-2,360065  	15162,781830  	818,842571  	0,118763  	-0,047933  
166,577000  	9,710371  	68,291548  	1256,818530  	657,183579  	80,435853  	77,581763  	0,003995  	0,011027  	0,003965  	0,003986  	0,004473  	-0,000000  	-0,000000  	26,400038  	20,719079  	23,115419  	35,631942  	52,847745  	49,594024  	51,404699  	57,215223  	68,355209  	66,141392  	68,220341  	74,382514  	25,000766  	22,399368  	24,376596  	76,448460  	-0,004928  	-0,002497  	612,455393  	-9726,724086  	-0,013766  	-0,050003  	0,400981  	0,203180  	-2,432670  	15129,889121  	814,577670  	0,118145  	-0,047954  
167,577000  	9,709270  	68,294629  	1256,818530  	657,183579  	80,437978  	77,584073  	0,003998  	0,011029  	0,003962  	0,003979  	0,004434  	-0,000000  	-0,000000  	26,394385  	20,722372  	23,105517  	35,634953  	52,847417  	49,593577  	51,400680  	57,216675  	68,355742  	66,147813  	68,221772  	74,384508  	24,994048  	22,384366  	24,380425  	76,449675  	-0,010139  	-0,005138  	1260,259151  	-9727,083770  	-0,013767  	-0,050005  	0,370019  	0,187492  	-2,244688  	15133,131347  	878,254610  	0,127380  	-0,047956  
168,581000  	9,711044  	68,304777  	57,725912  	57,696365  	80,439415  	77,582700  	0,003996  	0,011057  	0,003960  	0,004000  	0,004462  	0,000002  	-0,000000  	26,396371  	20,719459  	23,109273  	35,631046  	52,844266  	49,590502  	51,393046  	57,216175  	68,355763  	66,151812  	68,223473  	74,380641  	24,997092  	22,380111  	24,378283  	76,441834  	0,006736  	0,003413  	-837,319870  	-1,524440  	-0,051160  	-0,049978  	0,392080  	0,198670  	-2,380860  	15194,253279  	832,894146  	0,120801  	-0,047933  
169,577000  	9,710433  	68,311501  	1256,818530  	956,927186  	80,442665  	77,584947  	0,003995  	0,011059  	0,003961  	0,003972  	0,004463  	0,000001  	-0,000000  	26,404885  	20,719209  	23,115321  	35,632137  	52,838359  	49,597302  	51,395842  	57,220305  	68,354496  	66,146243  	68,222004  	74,379774  	24,999187  	22,373814  	24,381635  	76,436017  	-0,016364  	-0,008292  	2034,444020  	-4419,810699  	-0,012268  	-0,049989  	0,392844  	0,199057  	-2,386338  	15197,241531  	822,916821  	0,119354  	-0,047942  
170,579000  	9,710249  	68,309384  	1256,818530  	-242,047242  	80,444977  	77,591004  	0,003995  	0,011036  	0,003962  	0,003999  	0,004443  	0,000001  	-0,000000  	26,401407  	20,721826  	23,105994  	35,632784  	52,839754  	49,599962  	51,399365  	57,214685  	68,350401  	66,141179  	68,219613  	74,386298  	24,991519  	22,369236  	24,384708  	76,436312  	0,005911  	0,002995  	-734,872736  	-35505,176178  	-0,021692  	-0,049993  	0,377419  	0,191241  	-2,289635  	15149,082135  	807,996731  	0,117190  	-0,047945  
171,578000  	9,710524  	68,310598  	357,499067  	-242,047242  	80,447383  	77,598683  	0,003994  	0,011026  	0,003958  	0,003978  	0,004451  	0,000003  	-0,000000  	26,402913  	20,724507  	23,108125  	35,634790  	52,845868  	49,596941  	51,402372  	57,216515  	68,351257  	66,149230  	68,228257  	74,391786  	24,996965  	22,376285  	24,387138  	76,445908  	-0,011067  	-0,005608  	1375,950303  	-30919,824674  	-0,051139  	-0,049958  	0,383128  	0,194134  	-2,319980  	15126,445273  	801,599381  	0,116262  	-0,047915  
172,576000  	9,711503  	68,319750  	957,045375  	-242,047242  	80,449632  	77,601181  	0,003994  	0,011054  	0,003962  	0,003994  	0,004410  	0,000001  	-0,000000  	26,402143  	20,723640  	23,114717  	35,638108  	52,841879  	49,595987  	51,406019  	57,222568  	68,352881  	66,153506  	68,232287  	74,392734  	24,999898  	22,371271  	24,387340  	76,451456  	0,002056  	0,001042  	-255,617304  	-34185,723692  	-0,026844  	-0,049987  	0,350966  	0,177837  	-2,125039  	15186,547068  	790,061554  	0,114589  	-0,047940  
173,577000  	9,710402  	68,336372  	957,045375  	956,927186  	80,449757  	77,599714  	0,003997  	0,011016  	0,003964  	0,004003  	0,004446  	-0,000000  	-0,000000  	26,391151  	20,720094  	23,109462  	35,632010  	52,838269  	49,595889  	51,403811  	57,214435  	68,347197  	66,144998  	68,225276  	74,389702  	24,991264  	22,360591  	24,383105  	76,446195  	0,008806  	0,004462  	-1095,299565  	-1,917202  	-0,013766  	-0,050004  	0,379769  	0,192432  	-2,300722  	15105,936410  	859,585079  	0,124672  	-0,047954  
174,577000  	9,710586  	68,338115  	357,499067  	357,439972  	80,449445  	77,598340  	0,003997  	0,011052  	0,003963  	0,003998  	0,004457  	0,000001  	-0,000000  	26,392285  	20,717381  	23,109587  	35,628845  	52,837526  	49,596206  	51,396118  	57,217650  	68,341157  	66,140460  	68,225206  	74,381827  	24,999975  	22,364589  	24,380670  	76,444909  	0,004999  	0,002533  	-621,815662  	-1,684823  	-0,026845  	-0,049986  	0,387958  	0,196581  	-2,351209  	15182,262774  	856,845375  	0,124275  	-0,047939  
175,578000  	9,711320  	68,334566  	1256,818530  	357,439972  	80,447633  	77,593532  	0,003996  	0,011060  	0,003963  	0,004000  	0,004459  	0,000001  	-0,000000  	26,388213  	20,712648  	23,101252  	35,626690  	52,830453  	49,593199  	51,388605  	57,212544  	68,328029  	66,132047  	68,219305  	74,377612  	25,003823  	22,362592  	24,374023  	76,435404  	0,006466  	0,003276  	-804,202585  	-16232,172221  	-0,015673  	-0,049993  	0,389632  	0,197429  	-2,363832  	15200,372688  	839,058481  	0,121695  	-0,047945  
176,578000  	9,713094  	68,332450  	1256,818530  	956,927186  	80,445383  	77,590223  	0,003997  	0,011036  	0,003961  	0,004026  	0,004463  	0,000003  	-0,000000  	26,386998  	20,711483  	23,100658  	35,619911  	52,828199  	49,586969  	51,385792  	57,214880  	68,331054  	66,134859  	68,217012  	74,376717  	25,004229  	22,361167  	24,373211  	76,435583  	0,027801  	0,014087  	-3457,486513  	-4417,281461  	-0,012261  	-0,049957  	0,392654  	0,198960  	-2,383047  	15149,753501  	860,312372  	0,124778  	-0,047915  
177,725000  	9,710494  	68,322582  	1256,818530  	956,927186  	80,440977  	77,592783  	0,003994  	0,011064  	0,003962  	0,004003  	0,004436  	0,000001  	-0,000000  	26,389500  	20,716906  	23,105711  	35,619296  	52,826520  	49,584365  	51,392201  	57,219920  	68,330004  	66,131783  	68,218052  	74,377838  	24,995844  	22,371786  	24,376360  	76,440364  	0,009092  	0,004607  	-1130,588102  	-4419,570173  	-0,012267  	-0,049986  	0,371449  	0,188216  	-2,248858  	15208,845063  	799,304525  	0,115929  	-0,047940  
178,577000  	9,711656  	68,305213  	1256,818530  	-242,047242  	80,440602  	77,595967  	0,003995  	0,011065  	0,003963  	0,003998  	0,004457  	-0,000000  	-0,000000  	26,381278  	20,707790  	23,095975  	35,625092  	52,826074  	49,585265  	51,384803  	57,214442  	68,324331  	66,121771  	68,216493  	74,370516  	24,977114  	22,372950  	24,367738  	76,441025  	0,005218  	0,002644  	-648,603127  	-35509,942628  	-0,021695  	-0,050001  	0,388415  	0,196813  	-2,348637  	15211,722954  	809,910288  	0,117468  	-0,047952  
179,581000  	9,711656  	68,291766  	1256,818530  	657,183579  	80,441290  	77,594500  	0,003995  	0,011046  	0,003962  	0,003959  	0,004482  	0,000001  	-0,000000  	26,385913  	20,707975  	23,107370  	35,629395  	52,834401  	49,582519  	51,386931  	57,211529  	68,333707  	66,135507  	68,217972  	74,378840  	24,993390  	22,384493  	24,381447  	76,452143  	-0,026201  	-0,013276  	3256,378369  	-9723,365842  	-0,013761  	-0,049984  	0,408319  	0,206898  	-2,470858  	15171,001646  	821,490481  	0,119147  	-0,047937  
180,579000  	9,712084  	68,287968  	57,725912  	1256,670793  	80,441727  	77,597247  	0,003997  	0,011041  	0,003963  	0,003978  	0,004452  	0,000001  	-0,000000  	26,380129  	20,714665  	23,108085  	35,619505  	52,821959  	49,587724  	51,393085  	57,212638  	68,335582  	66,129748  	68,211212  	74,369149  	24,971295  	22,380564  	24,377766  	76,432033  	-0,011133  	-0,005641  	1383,570127  	24485,544434  	-0,018197  	-0,049987  	0,383998  	0,194575  	-2,321801  	15160,069481  	865,925941  	0,125592  	-0,047941  
181,580000  	9,710738  	68,288653  	957,045375  	956,927186  	80,440040  	77,596404  	0,003995  	0,011032  	0,003962  	0,003981  	0,004496  	0,000003  	-0,000000  	26,390816  	20,705791  	23,107233  	35,630346  	52,840241  	49,586576  	51,391713  	57,218632  	68,330368  	66,129899  	68,215663  	74,380086  	24,962299  	22,393817  	24,373141  	76,452010  	-0,009044  	-0,004583  	1123,966271  	-1,915897  	-0,013757  	-0,049965  	0,419150  	0,212386  	-2,533590  	15140,914669  	820,508989  	0,119005  	-0,047922  
182,576000  	9,710738  	68,291890  	-242,047242  	357,439972  	80,439977  	77,591160  	0,003993  	0,011016  	0,003961  	0,003980  	0,004428  	0,000002  	-0,000000  	26,384557  	20,714392  	23,110549  	35,621566  	52,824659  	49,590628  	51,400305  	57,216895  	68,337020  	66,141715  	68,232760  	74,384929  	24,964634  	22,394603  	24,383675  	76,451483  	-0,009895  	-0,005014  	1229,823314  	30929,424159  	-0,051160  	-0,049976  	0,364890  	0,184892  	-2,209629  	15105,315272  	771,342596  	0,111874  	-0,047931  
183,579000  	9,711564  	68,296559  	-242,047242  	357,439972  	80,444164  	77,586727  	0,003995  	0,011075  	0,003964  	0,003993  	0,004444  	0,000000  	-0,000000  	26,392019  	20,710547  	23,113898  	35,629443  	52,832880  	49,583718  	51,405355  	57,213860  	68,321234  	66,125474  	68,221945  	74,389336  	24,956260  	22,391528  	24,376681  	76,443136  	0,001052  	0,000533  	-130,726501  	30940,746943  	-0,051179  	-0,049997  	0,377785  	0,191427  	-2,294639  	15232,490743  	826,327330  	0,119849  	-0,047948  
184,577000  	9,712849  	68,294692  	-242,047242  	956,927186  	80,443164  	77,589162  	0,003996  	0,011061  	0,003963  	0,003973  	0,004473  	0,000001  	-0,000000  	26,384786  	20,713279  	23,101544  	35,630825  	52,823862  	49,586382  	51,395677  	57,219103  	68,323879  	66,133280  	68,218751  	74,386574  	24,961606  	22,400659  	24,376490  	76,446173  	-0,014885  	-0,007542  	1850,019427  	34184,456025  	-0,026846  	-0,049986  	0,400964  	0,203172  	-2,432500  	15203,037637  	836,926031  	0,121386  	-0,047939  
185,578000  	9,712115  	68,291143  	1256,818530  	1256,670793  	80,440477  	77,590816  	0,003997  	0,011056  	0,003963  	0,003999  	0,004434  	0,000000  	-0,000001  	26,401066  	20,708971  	23,115917  	35,634252  	52,835930  	49,588412  	51,399473  	57,233596  	68,323379  	66,144536  	68,225836  	74,380908  	24,973508  	22,415085  	24,385833  	76,455159  	0,006210  	0,003146  	-771,733100  	-1,993363  	-0,011067  	-0,049994  	0,369826  	0,187394  	-2,240184  	15192,244839  	859,126108  	0,124606  	-0,047947  
186,576000  	9,712421  	68,294692  	1256,818530  	1256,670793  	80,440165  	77,594375  	0,003995  	0,011076  	0,003962  	0,004000  	0,004503  	0,000003  	-0,000000  	26,385439  	20,710990  	23,104796  	35,641164  	52,835414  	49,586751  	51,391464  	57,216235  	68,322328  	66,124185  	68,218739  	74,384915  	24,976918  	22,399379  	24,370967  	76,452542  	0,006631  	0,003360  	-824,112900  	-1,992274  	-0,011061  	-0,049964  	0,424439  	0,215067  	-2,567505  	15235,850404  	828,939934  	0,120228  	-0,047921  
187,580000  	9,714256  	68,299361  	1256,818530  	357,439972  	80,438446  	77,593470  	0,003994  	0,011055  	0,003961  	0,003988  	0,004445  	0,000002  	-0,000000  	26,378058  	20,704294  	23,098076  	35,637866  	52,826889  	49,578705  	51,393710  	57,213717  	68,319014  	66,133906  	68,218062  	74,382332  	24,990032  	22,392021  	24,371349  	76,446442  	-0,002918  	-0,001478  	362,652781  	-16227,671325  	-0,015669  	-0,049977  	0,378383  	0,191730  	-2,288251  	15190,439436  	789,680255  	0,114533  	-0,047932  
188,577000  	9,713828  	68,301291  	1256,818530  	956,927186  	80,440571  	77,593220  	0,003996  	0,011065  	0,003962  	0,003984  	0,004463  	0,000000  	-0,000000  	26,386023  	20,709707  	23,105657  	35,636004  	52,826422  	49,593193  	51,396239  	57,216632  	68,326682  	66,133836  	68,217515  	74,378240  	25,006223  	22,398929  	24,374330  	76,443496  	-0,006271  	-0,003177  	779,419961  	-4420,425446  	-0,012270  	-0,049997  	0,392656  	0,198962  	-2,376548  	15210,501902  	832,618764  	0,120761  	-0,047949  
189,577000  	9,713491  	68,304030  	1256,818530  	57,696365  	80,438321  	77,592814  	0,003997  	0,011038  	0,003964  	0,003964  	0,004467  	0,000002  	-0,000000  	26,387730  	20,714210  	23,112971  	35,635651  	52,832778  	49,595471  	51,397224  	57,223763  	68,330026  	66,135004  	68,214739  	74,381722  	25,005209  	22,400473  	24,384005  	76,445340  	-0,022274  	-0,011287  	2768,782872  	-24484,757446  	-0,018194  	-0,049980  	0,396239  	0,200777  	-2,396680  	15151,938095  	868,001902  	0,125893  	-0,047934  
190,579000  	9,714164  	68,308512  	1256,818530  	1256,670793  	80,436884  	77,593876  	0,003998  	0,011054  	0,003963  	0,004009  	0,004445  	0,000001  	-0,000000  	26,383964  	20,713981  	23,119614  	35,635476  	52,835687  	49,592376  	51,403603  	57,220624  	68,329800  	66,134456  	68,214595  	74,386197  	25,011648  	22,391391  	24,377265  	76,449170  	0,014108  	0,007149  	-1753,829223  	-1,993153  	-0,011066  	-0,049989  	0,378699  	0,191889  	-2,288572  	15188,116183  	872,739896  	0,126580  	-0,047942  
191,577000  	9,714990  	68,305898  	357,499067  	1256,670793  	80,438759  	77,597653  	0,003993  	0,011043  	0,003960  	0,003974  	0,004482  	0,000003  	-0,000000  	26,372897  	20,703043  	23,106029  	35,630626  	52,818782  	49,582677  	51,395025  	57,220319  	68,319224  	66,123687  	68,208763  	74,375070  	25,004810  	22,373911  	24,363324  	76,441087  	-0,014569  	-0,007382  	1811,005207  	16219,568999  	-0,015665  	-0,049960  	0,407785  	0,206627  	-2,462699  	15162,812250  	779,406364  	0,113043  	-0,047918  
192,579000  	9,714134  	68,297929  	957,045375  	1256,670793  	80,437446  	77,592284  	0,003995  	0,011044  	0,003962  	0,003979  	0,004432  	0,000001  	-0,000000  	26,378040  	20,701321  	23,106586  	35,634539  	52,821633  	49,583599  	51,393854  	57,225033  	68,322272  	66,123009  	68,215157  	74,378954  	25,002761  	22,358244  	24,368068  	76,445400  	-0,010409  	-0,005274  	1293,774035  	4415,283413  	-0,012266  	-0,049981  	0,368444  	0,186693  	-2,228290  	15165,784938  	815,079008  	0,118217  	-0,047935  
193,581000  	9,714501  	68,288809  	57,725912  	57,696365  	80,436290  	77,588943  	0,003995  	0,011028  	0,003961  	0,003996  	0,004486  	0,000000  	-0,000000  	26,386759  	20,696832  	23,108903  	35,626195  	52,824270  	49,589896  	51,399440  	57,227340  	68,323334  	66,129770  	68,218856  	74,380341  	25,003914  	22,356292  	24,368834  	76,444613  	0,003625  	0,001837  	-450,460268  	-1,525029  	-0,051180  	-0,050000  	0,411493  	0,208507  	-2,490551  	15132,251284  	827,209966  	0,119977  	-0,047951  
194,577000  	9,715051  	68,274365  	1256,818530  	1256,670793  	80,435353  	77,595811  	0,003998  	0,011040  	0,003964  	0,003989  	0,004465  	0,000001  	-0,000000  	26,377940  	20,694025  	23,104249  	35,624446  	52,827067  	49,585480  	51,394307  	57,224125  	68,317051  	66,125545  	68,216016  	74,378936  	25,000270  	22,350678  	24,371890  	76,442760  	-0,002527  	-0,001280  	313,906328  	-1,993139  	-0,011066  	-0,049988  	0,394743  	0,200019  	-2,382623  	15158,298743  	873,403639  	0,126676  	-0,047941  
195,578000  	9,715051  	68,268762  	1256,818530  	357,439972  	80,434603  	77,596030  	0,003993  	0,011071  	0,003962  	0,004010  	0,004453  	0,000001  	-0,000000  	26,377762  	20,702903  	23,112683  	35,630499  	52,837968  	49,587779  	51,398452  	57,232932  	68,321043  	66,131267  	68,219793  	74,382611  	24,997425  	22,350602  	24,377398  	76,452513  	0,014916  	0,007558  	-1852,912271  	-16230,843113  	-0,015672  	-0,049988  	0,385252  	0,195210  	-2,324543  	15225,141792  	783,544165  	0,113643  	-0,047941  
196,579000  	9,714256  	68,273120  	1256,818530  	-242,047242  	80,434165  	77,586789  	0,003995  	0,011067  	0,003963  	0,003976  	0,004481  	0,000002  	-0,000000  	26,386291  	20,708031  	23,118238  	35,637304  	52,839599  	49,595271  	51,405178  	57,236286  	68,325673  	66,139126  	68,225225  	74,383851  	24,984532  	22,353437  	24,377015  	76,457512  	-0,012557  	-0,006362  	1559,986491  	-35496,017728  	-0,021686  	-0,049979  	0,407284  	0,206374  	-2,465101  	15216,234338  	812,176899  	0,117796  	-0,047933  
197,577000  	9,715266  	68,284295  	1256,818530  	1256,670793  	80,439009  	77,577955  	0,003998  	0,011069  	0,003963  	0,003989  	0,004458  	0,000000  	-0,000000  	26,382701  	20,706302  	23,113397  	35,639544  	52,830680  	49,590325  	51,397568  	57,229150  	68,318242  	66,134638  	68,225016  	74,379696  	24,961380  	22,345138  	24,372360  	76,448988  	-0,002495  	-0,001264  	309,996864  	-1,993548  	-0,011068  	-0,050000  	0,389194  	0,197208  	-2,366923  	15220,268903  	880,846031  	0,127756  	-0,047951  
198,578000  	9,716856  	68,288902  	657,272221  	1256,670793  	80,437821  	77,587757  	0,003995  	0,011058  	0,003963  	0,003983  	0,004485  	0,000000  	-0,000000  	26,377522  	20,703524  	23,112528  	35,634026  	52,827399  	49,583372  	51,397207  	57,226236  	68,313190  	66,130821  	68,218884  	74,376163  	24,949969  	22,339490  	24,368125  	76,444238  	-0,007408  	-0,003754  	920,615510  	9722,045790  	-0,013765  	-0,049997  	0,410342  	0,207923  	-2,485952  	15195,761554  	829,420088  	0,120297  	-0,047949  
199,579000  	9,716489  	68,293571  	657,272221  	1256,670793  	80,435540  	77,592565  	0,003994  	0,011038  	0,003960  	0,003992  	0,004440  	0,000001  	-0,000000  	26,379051  	20,701532  	23,103260  	35,633773  	52,826825  	49,584897  	51,399218  	57,220782  	68,316622  	66,128906  	68,214407  	74,378294  	24,948567  	22,337113  	24,367276  	76,450718  	0,000450  	0,000228  	-55,957539  	9719,544604  	-0,013761  	-0,049983  	0,374520  	0,189772  	-2,263295  	15152,547914  	787,625477  	0,114235  	-0,047936  
200,577000  	9,716489  	68,294941  	57,725912  	1256,670793  	80,432166  	77,592627  	0,003993  	0,011072  	0,003963  	0,003980  	0,004458  	0,000000  	-0,000001  	26,377971  	20,702892  	23,096774  	35,634378  	52,821654  	49,587523  	51,389719  	57,221953  	68,319436  	66,132223  	68,215135  	74,382315  	24,945258  	22,328839  	24,364556  	76,453165  	-0,009177  	-0,004650  	1140,517669  	24489,945618  	-0,018200  	-0,049997  	0,389004  	0,197111  	-2,347983  	15225,478536  	776,052345  	0,112557  	-0,047949  
201,578000  	9,716795  	68,291921  	57,725912  	1256,670793  	80,434853  	77,590504  	0,003997  	0,011047  	0,003962  	0,004017  	0,004451  	-0,000000  	-0,000000  	26,372554  	20,693224  	23,111398  	35,631914  	52,820134  	49,588464  	51,395024  	57,222522  	68,319395  	66,135102  	68,206249  	74,382260  	24,945044  	22,326276  	24,358000  	76,447775  	0,020094  	0,010182  	-2497,141507  	24491,382190  	-0,018201  	-0,050001  	0,383810  	0,194479  	-2,320555  	15173,237176  	858,179921  	0,124468  	-0,047952  
202,576000  	9,717468  	68,285509  	1256,818530  	1256,670793  	80,438727  	77,586571  	0,003994  	0,011050  	0,003960  	0,003977  	0,004436  	0,000000  	-0,000000  	26,372064  	20,691119  	23,106717  	35,631233  	52,818111  	49,591342  	51,392271  	57,218453  	68,312171  	66,130348  	68,211028  	74,378175  	24,940335  	22,325495  	24,349245  	76,447235  	-0,012180  	-0,006172  	1513,451897  	-1,993348  	-0,011067  	-0,049994  	0,371403  	0,188192  	-2,251700  	15179,713138  	799,459869  	0,115952  	-0,047946  
203,577000  	9,717009  	68,279626  	1256,818530  	357,439972  	80,436478  	77,589599  	0,003996  	0,011022  	0,003965  	0,003981  	0,004496  	0,000001  	-0,000000  	26,366648  	20,692085  	23,098794  	35,638218  	52,823740  	49,589963  	51,388097  	57,215979  	68,312778  	66,126511  	68,215422  	74,372882  	24,935238  	22,327406  	24,364879  	76,448028  	-0,009149  	-0,004636  	1136,743316  	-16231,853616  	-0,015673  	-0,049992  	0,419070  	0,212346  	-2,535996  	15118,165324  	835,414957  	0,121167  	-0,047944  
204,579000  	9,718722  	68,276389  	1256,818530  	956,927186  	80,433541  	77,595468  	0,003995  	0,011074  	0,003963  	0,003981  	0,004457  	0,000001  	-0,000000  	26,366957  	20,698545  	23,102154  	35,625938  	52,814581  	49,582644  	51,383962  	57,208963  	68,319222  	66,118944  	68,206846  	74,370039  	24,937991  	22,318476  	24,358033  	76,448908  	-0,009137  	-0,004630  	1135,128643  	-4419,497983  	-0,012267  	-0,049986  	0,387814  	0,196508  	-2,339589  	15230,437734  	814,048088  	0,118068  	-0,047939  
205,576000  	9,718080  	68,279844  	-242,047242  	1256,670793  	80,434290  	77,591597  	0,003995  	0,011043  	0,003962  	0,003979  	0,004470  	0,000001  	-0,000000  	26,367131  	20,699415  	23,104897  	35,630677  	52,824987  	49,586120  	51,390788  	57,219884  	68,308769  	66,130851  	68,204962  	74,378091  	24,934390  	22,312812  	24,361686  	76,453309  	-0,010034  	-0,005084  	1246,612463  	35499,505477  	-0,021691  	-0,049985  	0,398719  	0,202034  	-2,409296  	15163,834509  	808,081464  	0,117202  	-0,047939  
206,577000  	9,718263  	68,279657  	357,499067  	657,183579  	80,434790  	77,585915  	0,003996  	0,011078  	0,003963  	0,004006  	0,004464  	0,000000  	-0,000000  	26,376538  	20,703368  	23,108711  	35,644257  	52,836059  	49,592016  	51,396533  	57,222784  	68,319952  	66,135337  	68,211606  	74,393484  	24,945719  	22,323114  	24,367574  	76,451267  	0,011146  	0,005648  	-1384,797369  	7099,750762  	-0,021695  	-0,049997  	0,393786  	0,199534  	-2,384655  	15239,708815  	830,669902  	0,120478  	-0,047949  
207,577000  	9,717988  	68,279844  	357,499067  	657,183579  	80,432447  	77,591222  	0,003998  	0,011059  	0,003962  	0,003967  	0,004463  	0,000002  	-0,000000  	26,382354  	20,686968  	23,108015  	35,633887  	52,826649  	49,585209  	51,392593  	57,217127  	68,305960  	66,125469  	68,210838  	74,369250  	24,957116  	22,315209  	24,358299  	76,439420  	-0,020347  	-0,010310  	2527,947237  	7097,345509  	-0,021687  	-0,049978  	0,392907  	0,199089  	-2,372948  	15199,152343  	879,511484  	0,127562  	-0,047932  
208,578000  	9,718477  	68,289369  	957,045375  	1256,670793  	80,430260  	77,590660  	0,003993  	0,011078  	0,003961  	0,003979  	0,004480  	0,000000  	-0,000000  	26,375465  	20,708495  	23,115599  	35,640944  	52,838369  	49,592328  	51,398621  	57,219110  	68,319972  	66,129811  	68,217393  	74,385681  	24,971176  	22,324863  	24,370373  	76,456710  	-0,010653  	-0,005398  	1323,794909  	4416,475927  	-0,012270  	-0,049996  	0,406545  	0,205999  	-2,453907  	15238,683726  	783,876037  	0,113692  	-0,047948  
209,581000  	9,720007  	68,302536  	957,045375  	57,696365  	80,429010  	77,586883  	0,003999  	0,011063  	0,003964  	0,004024  	0,004412  	0,000001  	-0,000000  	26,378638  	20,700570  	23,104520  	35,633876  	52,833649  	49,587536  	51,401051  	57,220695  	68,325133  	66,132062  	68,217481  	74,379280  	24,968268  	22,321023  	24,359847  	76,443820  	0,025853  	0,013100  	-3213,205442  	-21299,713002  	-0,021688  	-0,049981  	0,352264  	0,178495  	-2,128161  	15207,536995  	905,609285  	0,131348  	-0,047935  
210,577000  	9,720435  	68,307703  	-242,047242  	657,183579  	80,426760  	77,587258  	0,003994  	0,011063  	0,003962  	0,003982  	0,004477  	0,000001  	-0,000000  	26,370310  	20,691088  	23,096434  	35,631365  	52,817330  	49,582192  	51,385756  	57,221028  	68,307625  	66,115407  	68,203638  	74,366520  	24,967736  	22,298071  	24,350674  	76,446955  	-0,007658  	-0,003880  	951,895930  	32735,569186  	-0,035216  	-0,049986  	0,404301  	0,204862  	-2,440279  	15207,469080  	791,890377  	0,114854  	-0,047940  
211,579000  	9,721353  	68,314147  	657,272221  	657,183579  	80,426541  	77,588225  	0,003997  	0,011067  	0,003964  	0,003992  	0,004456  	0,000001  	-0,000000  	26,372898  	20,706424  	23,097521  	35,631406  	52,831510  	49,596684  	51,392970  	57,218705  	68,316102  	66,125778  	68,209167  	74,377237  	24,980159  	22,313631  	24,367202  	76,440838  	0,000526  	0,000267  	-65,417987  	-1,810362  	-0,018197  	-0,049991  	0,387630  	0,196415  	-2,338680  	15215,468173  	859,366185  	0,124641  	-0,047943  
212,577000  	9,721781  	68,311532  	1256,818530  	1256,670793  	80,427791  	77,580546  	0,003995  	0,011065  	0,003962  	0,004018  	0,004462  	0,000000  	-0,000000  	26,378504  	20,699315  	23,112577  	35,638140  	52,834476  	49,597843  	51,409009  	57,233026  	68,330782  	66,128011  	68,223845  	74,382114  	24,989319  	22,316654  	24,363554  	76,446161  	0,021009  	0,010646  	-2611,532269  	-1,993489  	-0,011068  	-0,049998  	0,392048  	0,198654  	-2,372772  	15211,280092  	823,707664  	0,119469  	-0,047950  
213,578000  	9,721567  	68,299890  	1256,818530  	57,696365  	80,428822  	77,570275  	0,003994  	0,011072  	0,003963  	0,004006  	0,004466  	0,000001  	-0,000000  	26,375121  	20,693441  	23,101443  	35,642920  	52,834542  	49,596261  	51,401206  	57,224839  	68,323486  	66,130468  	68,217825  	74,380904  	24,982231  	22,301864  	24,362805  	76,442401  	0,011318  	0,005735  	-1406,592668  	-24489,496252  	-0,018197  	-0,049991  	0,395671  	0,200489  	-2,404200  	15226,028222  	787,872615  	0,114271  	-0,047944  
214,578000  	9,720955  	68,294598  	1256,818530  	657,183579  	80,428635  	77,575457  	0,003996  	0,011059  	0,003965  	0,003991  	0,004464  	-0,000000  	-0,000000  	26,380048  	20,702543  	23,111410  	35,632602  	52,833518  	49,590724  	51,404550  	57,224969  	68,326302  	66,130096  	68,221709  	74,381134  	24,981989  	22,297922  	24,362636  	76,443347  	-0,000651  	-0,000330  	80,894439  	-9727,142887  	-0,013767  	-0,050005  	0,393732  	0,199507  	-2,387928  	15198,466120  	847,538854  	0,122925  	-0,047956  
215,576000  	9,720863  	68,290676  	1256,818530  	-242,047242  	80,431385  	77,578985  	0,003994  	0,011038  	0,003961  	0,003981  	0,004426  	0,000000  	-0,000000  	26,371328  	20,693436  	23,115345  	35,638281  	52,827731  	49,593367  	51,397296  	57,225255  	68,318365  	66,130004  	68,225663  	74,385748  	24,993240  	22,293487  	24,364053  	76,454396  	-0,008562  	-0,004338  	1063,857144  	-35507,064035  	-0,021693  	-0,049996  	0,363830  	0,184355  	-2,205975  	15152,989360  	795,823406  	0,115424  	-0,047948  
216,577000  	9,720190  	68,284139  	1256,818530  	956,927186  	80,431697  	77,580483  	0,003997  	0,011077  	0,003966  	0,003997  	0,004456  	0,000001  	-0,000000  	26,368038  	20,692018  	23,110403  	35,641892  	52,834375  	49,584128  	51,391586  	57,220610  	68,320615  	66,130320  	68,208622  	74,384291  	24,996057  	22,296865  	24,350420  	76,446978  	0,004209  	0,002133  	-522,902965  	-4419,642687  	-0,012268  	-0,049987  	0,387560  	0,196379  	-2,348876  	15236,339250  	868,517362  	0,125968  	-0,047941  
217,579000  	9,721781  	68,278754  	57,725912  	57,696365  	80,430197  	77,583137  	0,003995  	0,011074  	0,003962  	0,003997  	0,004490  	0,000001  	-0,000000  	26,375327  	20,701984  	23,107514  	35,635191  	52,832045  	49,586151  	51,394824  	57,226852  	68,321156  	66,131417  	68,208016  	74,378100  	25,002970  	22,301464  	24,355085  	76,449281  	0,004341  	0,002199  	-539,244516  	-1,524698  	-0,051169  	-0,049988  	0,414325  	0,209941  	-2,507435  	15231,263323  	819,026159  	0,118790  	-0,047941  
218,576000  	9,721720  	68,282054  	1256,818530  	657,183579  	80,429197  	77,584760  	0,003997  	0,011024  	0,003964  	0,003988  	0,004459  	0,000000  	-0,000000  	26,381699  	20,705352  	23,113162  	35,645303  	52,836037  	49,592324  	51,402072  	57,230044  	68,324050  	66,134598  	68,217504  	74,378489  	25,008611  	22,304012  	24,361838  	76,456974  	-0,003094  	-0,001568  	384,350238  	-9725,214835  	-0,013764  	-0,049994  	0,389402  	0,197313  	-2,354435  	15123,674207  	853,477233  	0,123786  	-0,047946  
219,577000  	9,722087  	68,289244  	1256,818530  	657,183579  	80,426854  	77,582512  	0,003994  	0,011035  	0,003961  	0,003971  	0,004473  	0,000000  	-0,000000  	26,379113  	20,699057  	23,110828  	35,648286  	52,837682  	49,589356  	51,394751  	57,225347  	68,324394  	66,129755  	68,213457  	74,381211  	25,008870  	22,300914  	24,364838  	76,449331  	-0,016946  	-0,008587  	2105,657840  	-9726,167821  	-0,013765  	-0,050000  	0,401045  	0,203212  	-2,424748  	15147,343940  	790,379303  	0,114635  	-0,047951  
220,577000  	9,722148  	68,286132  	1256,818530  	57,696365  	80,424917  	77,586196  	0,003998  	0,011105  	0,003965  	0,004016  	0,004468  	0,000001  	-0,000000  	26,379052  	20,689548  	23,110195  	35,640718  	52,833352  	49,586948  	51,394168  	57,225037  	68,323369  	66,130611  	68,209171  	74,380204  	25,011264  	22,301076  	24,359221  	76,447232  	0,019468  	0,009865  	-2418,893127  	-24488,766239  	-0,018196  	-0,049989  	0,396537  	0,200928  	-2,392759  	15297,951441  	883,592796  	0,128154  	-0,047942  
221,578000  	9,722026  	68,288902  	-242,047242  	956,927186  	80,422917  	77,589255  	0,003992  	0,011057  	0,003962  	0,003996  	0,004447  	0,000000  	-0,000000  	26,375875  	20,694783  	23,109123  	35,638736  	52,831649  	49,590328  	51,396416  	57,230026  	68,324506  	66,135342  	68,207576  	74,385617  	25,012185  	22,301213  	24,355084  	76,449038  	0,003548  	0,001798  	-440,796251  	34190,605756  	-0,026851  	-0,049996  	0,380436  	0,192770  	-2,291511  	15193,666806  	749,389657  	0,108690  	-0,047948  
222,580000  	9,721842  	68,302847  	357,499067  	-242,047242  	80,425042  	77,585072  	0,003994  	0,011070  	0,003962  	0,003995  	0,004461  	0,000001  	-0,000000  	26,369426  	20,693302  	23,105024  	35,634246  	52,824949  	49,586174  	51,389129  	57,224205  	68,319352  	66,129540  	68,203635  	74,378242  	25,011558  	22,294480  	24,351576  	76,441985  	0,002579  	0,001307  	-320,513495  	-30938,684156  	-0,051170  	-0,049992  	0,391020  	0,198133  	-2,360505  	15221,171604  	800,321323  	0,116077  	-0,047945  
223,579000  	9,723677  	68,315454  	357,499067  	657,183579  	80,430666  	77,587507  	0,003996  	0,011067  	0,003962  	0,004006  	0,004446  	0,000000  	-0,000001  	26,370500  	20,689029  	23,109135  	35,636044  	52,824902  	49,583380  	51,388232  	57,220482  	68,315446  	66,131393  	68,204807  	74,371833  	25,018992  	22,289900  	24,349073  	76,438055  	0,011094  	0,005621  	-1379,074714  	7099,627536  	-0,021694  	-0,049996  	0,379285  	0,192187  	-2,292236  	15214,982158  	844,389606  	0,122468  	-0,047948  
224,580000  	9,724350  	68,320248  	-242,047242  	1256,670793  	80,431853  	77,589255  	0,003996  	0,011061  	0,003959  	0,004004  	0,004452  	0,000001  	-0,000000  	26,373642  	20,697911  	23,109198  	35,642701  	52,831992  	49,589187  	51,391831  	57,222143  	68,318158  	66,140719  	68,211536  	74,378665  	25,025851  	22,289266  	24,355289  	76,443563  	0,009768  	0,004950  	-1214,329395  	35503,426743  	-0,021693  	-0,049991  	0,383990  	0,194571  	-2,320213  	15202,034479  	838,260577  	0,121579  	-0,047944  
225,580000  	9,722423  	68,314676  	957,045375  	1256,670793  	80,430385  	77,588350  	0,003994  	0,011043  	0,003963  	0,004006  	0,004447  	0,000001  	-0,000000  	26,375342  	20,698452  	23,107248  	35,638253  	52,829361  	49,588766  	51,393820  	57,221811  	68,323066  	66,139044  	68,218084  	74,378308  	25,031074  	22,293004  	24,360488  	76,448899  	0,011388  	0,005771  	-1415,678805  	4415,938051  	-0,012268  	-0,049990  	0,380241  	0,192671  	-2,297103  	15164,068674  	805,080500  	0,116767  	-0,047942  
226,576000  	9,722362  	68,314987  	357,499067  	1256,670793  	80,430947  	77,591160  	0,003994  	0,011004  	0,003961  	0,003950  	0,004465  	0,000000  	-0,000000  	26,373998  	20,700362  	23,118710  	35,642713  	52,829507  	49,588606  	51,398638  	57,230155  	68,330376  	66,138974  	68,216388  	74,381625  	25,041209  	22,298799  	24,358443  	76,449279  	-0,034277  	-0,017368  	4260,928631  	16230,427985  	-0,015675  	-0,049998  	0,394251  	0,199770  	-2,379859  	15079,801227  	795,978750  	0,115447  	-0,047950  
227,578000  	9,723647  	68,321617  	1256,818530  	357,439972  	80,430416  	77,587757  	0,003996  	0,011053  	0,003963  	0,004000  	0,004441  	0,000001  	-0,000000  	26,368640  	20,701662  	23,114525  	35,643189  	52,826472  	49,592077  	51,393410  	57,222003  	68,325899  	66,134388  	68,207507  	74,370503  	25,037006  	22,295565  	24,353628  	76,451109  	0,006354  	0,003219  	-789,883059  	-16232,197187  	-0,015673  	-0,049993  	0,375900  	0,190471  	-2,271377  	15184,746617  	841,699330  	0,122078  	-0,047945  
228,580000  	9,724564  	68,319127  	57,725912  	956,927186  	80,428666  	77,577080  	0,003995  	0,011008  	0,003963  	0,004016  	0,004431  	0,000001  	-0,000000  	26,381956  	20,701043  	23,113872  	35,634980  	52,832972  	49,597271  	51,400763  	57,230915  	68,332359  	66,134937  	68,215786  	74,377703  	25,042490  	22,329863  	24,358174  	76,457664  	0,019642  	0,009953  	-2441,755005  	21299,661773  	-0,021691  	-0,049988  	0,367673  	0,186303  	-2,228642  	15088,348591  	815,792178  	0,118321  	-0,047941  
229,611000  	9,724167  	68,303127  	-242,047242  	57,696365  	80,429947  	77,575769  	0,003995  	0,011039  	0,003962  	0,004017  	0,004475  	0,000000  	-0,000001  	26,377740  	20,703696  	23,113319  	35,642390  	52,830514  	49,601736  	51,399179  	57,232759  	68,327569  	66,134410  	68,207862  	74,382601  	25,036136  	22,391458  	24,352425  	76,452332  	0,020527  	0,010401  	-2551,122085  	27696,802538  	-0,093559  	-0,049995  	0,402465  	0,203932  	-2,441746  	15154,283279  	821,490481  	0,119147  	-0,047947  
230,577000  	9,725084  	68,284264  	-242,047242  	1256,670793  	80,431572  	77,577205  	0,003995  	0,011050  	0,003961  	0,003990  	0,004430  	0,000002  	-0,000000  	26,377975  	20,705414  	23,106837  	35,639052  	52,831006  	49,597668  	51,396415  	57,234149  	68,325551  	66,134577  	68,209319  	74,383949  	25,035090  	22,455513  	24,349643  	76,444085  	-0,001104  	-0,000559  	137,118655  	35489,585298  	-0,021685  	-0,049969  	0,367182  	0,186054  	-2,227834  	15178,419926  	811,315445  	0,117671  	-0,047925  
231,577000  	9,724809  	68,279501  	-242,047242  	1256,670793  	80,429447  	77,581451  	0,003994  	0,011040  	0,003962  	0,004000  	0,004474  	0,000001  	-0,000001  	26,378716  	20,700658  	23,112624  	35,635620  	52,816698  	49,587043  	51,391918  	57,229827  	68,334249  	66,134866  	68,208452  	74,376048  	25,033892  	22,506744  	24,342878  	76,447757  	0,006795  	0,003443  	-844,153283  	35504,375855  	-0,021694  	-0,049993  	0,401689  	0,203539  	-2,431766  	15157,054346  	807,135278  	0,117065  	-0,047945  
232,580000  	9,724564  	68,276389  	957,045375  	57,696365  	80,428822  	77,586883  	0,003995  	0,011030  	0,003963  	0,004000  	0,004437  	-0,000001  	-0,000000  	26,381521  	20,692845  	23,110137  	35,631207  	52,822455  	49,595843  	51,389685  	57,224639  	68,321450  	66,135214  	68,203001  	74,384187  	25,025067  	22,563163  	24,345458  	76,435508  	0,006445  	0,003266  	-800,613959  	-21309,878288  	-0,021698  	-0,050008  	0,372575  	0,188786  	-2,250714  	15135,465212  	808,321542  	0,117237  	-0,047958  
233,576000  	9,725513  	68,280093  	1256,818530  	1256,670793  	80,429072  	77,585322  	0,003998  	0,011042  	0,003963  	0,003995  	0,004456  	-0,000000  	-0,000000  	26,383324  	20,707716  	23,112196  	35,638512  	52,829193  	49,600183  	51,406729  	57,222695  	68,324260  	66,141860  	68,212527  	74,382420  	25,039990  	22,591897  	24,356088  	76,443863  	0,002498  	0,001266  	-310,302340  	-1,993647  	-0,011069  	-0,050002  	0,387129  	0,196161  	-2,340129  	15162,145128  	876,884758  	0,127181  	-0,047954  
234,576000  	9,726797  	68,294474  	657,272221  	1256,670793  	80,428572  	77,579952  	0,003994  	0,011032  	0,003962  	0,003986  	0,004421  	0,000001  	-0,000000  	26,393108  	20,703769  	23,114967  	35,641689  	52,821081  	49,591783  	51,404616  	57,239846  	68,331674  	66,147342  	68,210086  	74,380841  	25,037919  	22,593816  	24,352686  	76,443143  	-0,004647  	-0,002355  	577,419093  	9720,245192  	-0,013762  	-0,049987  	0,359697  	0,182261  	-2,178029  	15139,576889  	794,665387  	0,115256  	-0,047940  
235,578000  	9,727532  	68,305400  	657,272221  	1256,670793  	80,426854  	77,580046  	0,003995  	0,011032  	0,003963  	0,003995  	0,004496  	0,000001  	-0,000000  	26,389892  	20,697295  	23,099218  	35,629092  	52,826226  	49,588857  	51,393802  	57,225875  	68,322458  	66,131402  	68,202170  	74,370245  	25,033225  	22,593734  	24,352374  	76,436575  	0,002510  	0,001272  	-311,911454  	9720,264416  	-0,013762  	-0,049987  	0,418751  	0,212184  	-2,533994  	15139,342724  	823,742969  	0,119474  	-0,047940  
236,579000  	9,726614  	68,311127  	1256,818530  	1256,670793  	80,427354  	77,582606  	0,003997  	0,011017  	0,003962  	0,003999  	0,004465  	0,000001  	-0,000000  	26,380282  	20,693192  	23,106692  	35,637575  	52,818158  	49,593310  	51,399115  	57,224947  	68,327981  	66,138648  	68,201588  	74,378685  	25,046353  	22,596683  	24,352217  	76,436208  	0,006158  	0,003120  	-765,364495  	-1,993278  	-0,011067  	-0,049992  	0,394353  	0,199822  	-2,384629  	15107,197079  	859,825156  	0,124707  	-0,047945  
237,578000  	9,726002  	68,318380  	1256,818530  	956,927186  	80,427073  	77,580265  	0,003993  	0,011014  	0,003960  	0,004011  	0,004463  	0,000001  	-0,000001  	26,384965  	20,704735  	23,107862  	35,645710  	52,825084  	49,602423  	51,412610  	57,234427  	68,337282  	66,142667  	68,212573  	74,384892  	25,047206  	22,591796  	24,349544  	76,446165  	0,015145  	0,007674  	-1882,634160  	-4420,025326  	-0,012269  	-0,049992  	0,392939  	0,199105  	-2,377801  	15100,172139  	773,143175  	0,112135  	-0,047945  
238,578000  	9,727287  	68,318442  	1256,818530  	357,439972  	80,426385  	77,578516  	0,003995  	0,011034  	0,003961  	0,004008  	0,004480  	0,000000  	-0,000000  	26,384625  	20,708431  	23,118527  	35,648615  	52,836042  	49,607002  	51,406252  	57,239623  	68,335724  	66,145965  	68,208355  	74,387318  	25,049209  	22,572389  	24,359210  	76,447374  	0,013339  	0,006759  	-1658,089231  	-16232,960413  	-0,015674  	-0,049996  	0,406121  	0,205784  	-2,458482  	15143,292396  	814,379960  	0,118116  	-0,047948  
239,576000  	9,729030  	68,313213  	1256,818530  	1256,670793  	80,425666  	77,575644  	0,003996  	0,011045  	0,003964  	0,004016  	0,004470  	0,000001  	-0,000000  	26,378777  	20,698358  	23,115419  	35,627923  	52,828092  	49,589568  	51,395062  	57,229939  	68,333814  	66,131420  	68,201310  	74,371282  	25,051666  	22,554713  	24,342587  	76,432627  	0,019435  	0,009848  	-2415,630262  	-1,993009  	-0,011065  	-0,049985  	0,398845  	0,202097  	-2,416259  	15167,559213  	842,744371  	0,122230  	-0,047938  
240,581000  	9,728908  	68,309789  	57,725912  	1256,670793  	80,426854  	77,575894  	0,003995  	0,011049  	0,003962  	0,003978  	0,004470  	0,000001  	-0,000000  	26,381572  	20,708984  	23,104550  	35,640345  	52,832236  	49,597545  	51,396752  	57,224185  	68,328655  	66,143784  	68,201193  	74,376249  	25,051914  	22,552595  	24,339919  	76,436448  	-0,011069  	-0,005609  	1375,660939  	24488,292036  	-0,018199  	-0,049994  	0,398750  	0,202049  	-2,416479  	15176,547317  	820,664333  	0,119027  	-0,047946  
241,578000  	9,730254  	68,308077  	957,045375  	1256,670793  	80,429260  	77,580514  	0,003996  	0,011033  	0,003961  	0,004011  	0,004460  	0,000001  	-0,000000  	26,385060  	20,701996  	23,115702  	35,643018  	52,832819  	49,595997  	51,403206  	57,231733  	68,337607  	66,148055  	68,211290  	74,378222  	25,056208  	22,547115  	24,350059  	76,434492  	0,015932  	0,008073  	-1979,963615  	4415,720054  	-0,012268  	-0,049987  	0,390287  	0,197761  	-2,363360  	15143,109167  	832,025632  	0,120675  	-0,047940  
242,578000  	9,728969  	68,303656  	357,499067  	657,183579  	80,428135  	77,582013  	0,003994  	0,011048  	0,003962  	0,003986  	0,004470  	0,000002  	-0,000001  	26,381874  	20,695459  	23,115469  	35,637581  	52,832970  	49,591194  	51,394729  	57,227407  	68,337381  	66,148474  	68,211796  	74,379641  	25,063041  	22,538151  	24,345541  	76,435750  	-0,004970  	-0,002518  	617,602351  	7097,384504  	-0,021687  	-0,049978  	0,398743  	0,202046  	-2,412342  	15173,486197  	796,077606  	0,115461  	-0,047933  
243,579000  	9,727960  	68,299921  	357,499067  	657,183579  	80,427666  	77,582949  	0,003995  	0,011026  	0,003961  	0,003986  	0,004441  	-0,000000  	-0,000000  	26,375373  	20,691704  	23,110017  	35,638368  	52,836287  	49,592689  	51,394030  	57,224153  	68,334453  	66,143179  	68,197493  	74,372695  	25,058215  	22,528867  	24,341100  	76,433440  	-0,004963  	-0,002515  	616,715329  	7100,549394  	-0,021697  	-0,050003  	0,375876  	0,190459  	-2,272876  	15128,113431  	821,377503  	0,119131  	-0,047954  
244,577000  	9,727715  	68,298614  	957,045375  	1256,670793  	80,427166  	77,575082  	0,003994  	0,011030  	0,003965  	0,004002  	0,004467  	0,000001  	-0,000000  	26,382130  	20,699681  	23,111947  	35,639618  	52,841053  	49,595699  	51,404325  	57,230346  	68,333387  	66,143331  	68,207702  	74,377885  	25,058029  	22,530530  	24,344533  	76,437484  	0,007909  	0,004008  	-982,813320  	4415,451601  	-0,012267  	-0,049983  	0,396092  	0,200703  	-2,401320  	15136,176903  	791,622056  	0,114815  	-0,047937  
245,578000  	9,728235  	68,297524  	1256,818530  	1256,670793  	80,426416  	77,575957  	0,003997  	0,011065  	0,003962  	0,004034  	0,004451  	0,000001  	-0,000000  	26,386562  	20,702191  	23,109350  	35,637736  	52,828085  	49,600178  	51,406146  	57,230112  	68,337560  	66,144092  	68,205912  	74,374431  	25,057375  	22,506655  	24,350968  	76,436286  	0,034218  	0,017339  	-4251,918401  	-1,993318  	-0,011067  	-0,049993  	0,383706  	0,194427  	-2,324903  	15212,207554  	865,466970  	0,125525  	-0,047946  
246,578000  	9,728235  	68,301882  	1256,818530  	1256,670793  	80,428416  	77,584261  	0,003995  	0,011041  	0,003961  	0,004009  	0,004473  	0,000000  	-0,000000  	26,379025  	20,697338  	23,098841  	35,633269  	52,821335  	49,594200  	51,398029  	57,220969  	68,335795  	66,141054  	68,197146  	74,368965  	25,047496  	22,486490  	24,346456  	76,433003  	0,013861  	0,007024  	-1722,501649  	-1,993517  	-0,011068  	-0,049999  	0,401112  	0,203247  	-2,425000  	15159,479471  	817,063175  	0,118505  	-0,047950  
247,576000  	9,728602  	68,312808  	1256,818530  	1256,670793  	80,429666  	77,583386  	0,003996  	0,011032  	0,003963  	0,003997  	0,004458  	0,000000  	-0,000000  	26,378238  	20,694527  	23,102395  	35,634415  	52,825314  	49,588579  	51,397484  	57,220947  	68,333874  	66,138594  	68,202676  	74,371368  	25,047695  	22,476239  	24,347467  	76,433966  	0,003838  	0,001945  	-477,084537  	-1,993473  	-0,011068  	-0,049998  	0,389156  	0,197188  	-2,354470  	15139,364655  	839,220886  	0,121719  	-0,047949  
248,577000  	9,728480  	68,319469  	57,725912  	1256,670793  	80,429916  	77,577018  	0,003995  	0,011058  	0,003964  	0,003970  	0,004468  	0,000001  	-0,000000  	26,386727  	20,695947  	23,108913  	35,639761  	52,830696  	49,596248  	51,402654  	57,225884  	68,334602  	66,141903  	68,212894  	74,377928  	25,055785  	22,461711  	24,353125  	76,436766  	-0,017386  	-0,008809  	2161,136157  	24485,626934  	-0,018197  	-0,049987  	0,396797  	0,201060  	-2,406282  	15196,173287  	819,682841  	0,118885  	-0,047941  
249,579000  	9,728602  	68,316201  	-242,047242  	57,696365  	80,433447  	77,583012  	0,003994  	0,011039  	0,003962  	0,003976  	0,004465  	0,000001  	-0,000000  	26,386836  	20,699947  	23,107916  	35,638045  	52,836879  	49,599507  	51,397846  	57,228456  	68,336394  	66,145649  	68,214398  	74,381158  	25,061108  	22,441986  	24,348093  	76,440417  	-0,012423  	-0,006295  	1544,137943  	27692,011432  	-0,093543  	-0,049985  	0,394732  	0,200013  	-2,391692  	15155,465422  	787,872615  	0,114271  	-0,047939  
250,578000  	9,729397  	68,313835  	357,499067  	657,183579  	80,436072  	77,586945  	0,003995  	0,011022  	0,003961  	0,004002  	0,004436  	0,000001  	-0,000000  	26,388754  	20,702912  	23,113645  	35,641022  	52,838987  	49,597901  	51,392778  	57,232627  	68,342573  	66,145523  	68,213592  	74,380943  	25,065794  	22,423176  	24,347392  	76,442351  	0,007861  	0,003983  	-977,030362  	7099,145029  	-0,021693  	-0,049992  	0,371952  	0,188471  	-2,252638  	15117,987755  	816,109928  	0,118367  	-0,047945  
251,576000  	9,728939  	68,311034  	357,499067  	-242,047242  	80,434915  	77,581513  	0,003996  	0,011042  	0,003963  	0,004010  	0,004457  	-0,000000  	-0,000000  	26,396681  	20,704600  	23,117037  	35,652595  	52,839347  	49,604396  	51,397967  	57,236519  	68,346235  	66,146446  	68,214765  	74,383672  	25,064428  	22,413262  	24,354250  	76,442287  	0,014569  	0,007382  	-1810,682379  	-30946,420101  	-0,051183  	-0,050006  	0,388444  	0,196827  	-2,356042  	15161,562192  	848,407368  	0,123051  	-0,047957  
252,578000  	9,728939  	68,308917  	-242,047242  	956,927186  	80,433853  	77,580015  	0,003995  	0,011051  	0,003962  	0,003997  	0,004439  	0,000001  	-0,000000  	26,386483  	20,699833  	23,111120  	35,645651  	52,834804  	49,600037  	51,394912  	57,234935  	68,343296  	66,143362  	68,204865  	74,378791  	25,061537  	22,396677  	24,349806  	76,439053  	0,004327  	0,002192  	-537,738804  	34188,254536  	-0,026849  	-0,049992  	0,374208  	0,189614  	-2,270043  	15180,183590  	826,023703  	0,119805  	-0,047944  
253,577000  	9,728877  	68,304621  	1256,818530  	1256,670793  	80,436915  	77,581857  	0,003995  	0,011059  	0,003962  	0,003970  	0,004457  	0,000001  	-0,000000  	26,378087  	20,688819  	23,109214  	35,634935  	52,828358  	49,591032  	51,387595  	57,225297  	68,340679  	66,136084  	68,197555  	74,370851  	25,065724  	22,380066  	24,344672  	76,432169  	-0,017711  	-0,008975  	2201,051922  	-1,993000  	-0,011065  	-0,049984  	0,387864  	0,196534  	-2,353895  	15198,737780  	817,444474  	0,118560  	-0,047938  
254,577000  	9,729061  	68,307610  	1256,818530  	1256,670793  	80,440352  	77,588725  	0,003996  	0,011051  	0,003962  	0,004024  	0,004445  	0,000000  	-0,000001  	26,382056  	20,700199  	23,112400  	35,646962  	52,844387  	49,600177  	51,395106  	57,229636  	68,350215  	66,140625  	68,205309  	74,379351  	25,071165  	22,377696  	24,351944  	76,440186  	0,026323  	0,013338  	-3271,358717  	-1,993350  	-0,011067  	-0,049994  	0,378695  	0,191887  	-2,295485  	15181,662860  	849,586571  	0,123222  	-0,047946  
255,578000  	9,728877  	68,308263  	1256,818530  	1256,670793  	80,440696  	77,589224  	0,003995  	0,011026  	0,003964  	0,003973  	0,004478  	0,000001  	-0,000000  	26,387171  	20,706230  	23,121533  	35,658135  	52,844334  	49,597750  	51,396145  	57,230231  	68,359933  	66,145599  	68,217372  	74,382170  	25,073839  	22,378805  	24,356873  	76,445501  	-0,015610  	-0,007910  	1939,978985  	-1,993174  	-0,011066  	-0,049989  	0,404446  	0,204936  	-2,451448  	15126,344816  	828,452719  	0,120157  	-0,047942  
256,577000  	9,729183  	68,309944  	57,725912  	1256,670793  	80,444883  	77,589099  	0,003993  	0,011018  	0,003961  	0,003985  	0,004478  	0,000000  	-0,000000  	26,397646  	20,707979  	23,130391  	35,656879  	52,842375  	49,608377  	51,395323  	57,236977  	68,352862  	66,149564  	68,218376  	74,377123  	25,084025  	22,383023  	24,353108  	76,442173  	-0,005121  	-0,002595  	636,454369  	24489,283826  	-0,018200  	-0,049996  	0,405219  	0,205328  	-2,459846  	15110,644464  	777,365709  	0,112747  	-0,047948  
257,577000  	9,730070  	68,309882  	57,725912  	57,696365  	80,444977  	77,590411  	0,003997  	0,011036  	0,003963  	0,003994  	0,004471  	0,000001  	-0,000000  	26,391523  	20,707020  	23,117135  	35,654081  	52,849319  	49,611207  	51,396174  	57,233550  	68,357051  	66,149400  	68,220077  	74,386717  	25,071912  	22,374154  	24,352008  	76,432435  	0,001466  	0,000743  	-182,256900  	-1,524794  	-0,051172  	-0,049991  	0,399632  	0,202496  	-2,424894  	15149,272438  	866,907433  	0,125734  	-0,047944  
258,578000  	9,728908  	68,305835  	1256,818530  	1256,670793  	80,444602  	77,593158  	0,003997  	0,011077  	0,003961  	0,004010  	0,004465  	0,000001  	-0,000000  	26,388852  	20,701964  	23,119442  	35,646788  	52,842899  	49,597175  	51,391647  	57,230849  	68,356241  	66,140507  	68,208007  	74,369016  	25,072781  	22,388176  	24,346730  	76,434460  	0,014759  	0,007479  	-1834,228988  	-1,993286  	-0,011067  	-0,049992  	0,394711  	0,200003  	-2,392420  	15236,897425  	851,245928  	0,123463  	-0,047945  
259,578000  	9,727440  	68,302007  	357,499067  	1256,670793  	80,442290  	77,594469  	0,003994  	0,011038  	0,003961  	0,003966  	0,004445  	0,000001  	-0,000000  	26,400757  	20,707994  	23,125669  	35,660341  	52,845078  	49,612301  	51,410652  	57,225660  	68,365472  	66,154241  	68,220849  	74,380597  	25,068426  	22,390330  	24,355971  	76,448144  	-0,020873  	-0,010576  	2593,863716  	16227,348341  	-0,015672  	-0,049987  	0,378444  	0,191760  	-2,290907  	15152,255738  	801,931252  	0,116310  	-0,047940  
260,576000  	9,728480  	68,300139  	-242,047242  	1256,670793  	80,439852  	77,595281  	0,003995  	0,011019  	0,003961  	0,004022  	0,004428  	0,000000  	-0,000000  	26,396895  	20,709891  	23,131568  	35,657183  	52,851911  	49,606782  	51,399078  	57,234418  	68,363881  	66,151789  	68,224552  	74,388808  	25,067813  	22,398149  	24,360674  	76,442608  	0,024380  	0,012353  	-3029,508385  	35505,595400  	-0,021695  	-0,049995  	0,365107  	0,185002  	-2,207648  	15111,845707  	828,805773  	0,120208  	-0,047947  
261,577000  	9,729612  	68,290240  	1256,818530  	956,927186  	80,437665  	77,597060  	0,003994  	0,011059  	0,003963  	0,003992  	0,004491  	0,000000  	-0,000000  	26,396603  	20,708208  	23,128041  	35,658950  	52,835181  	49,604690  	51,390450  	57,219077  	68,360463  	66,141202  	68,211439  	74,370781  	25,060070  	22,413277  	24,338618  	76,437335  	0,000365  	0,000185  	-45,346151  	-4420,631657  	-0,012270  	-0,050000  	0,414830  	0,210197  	-2,504805  	15198,247519  	789,214223  	0,114466  	-0,047951  
262,579000  	9,729000  	68,287812  	1256,818530  	-242,047242  	80,436415  	77,594687  	0,003996  	0,011045  	0,003961  	0,004027  	0,004492  	0,000001  	-0,000000  	26,387170  	20,705617  	23,119789  	35,661317  	52,845518  	49,602381  	51,397668  	57,221622  	68,362569  	66,145459  	68,214491  	74,365454  	25,051037  	22,423531  	24,341321  	76,430290  	0,028585  	0,014484  	-3551,277816  	-35502,451006  	-0,021690  	-0,049989  	0,415806  	0,210692  	-2,511688  	15168,971276  	845,272243  	0,122596  	-0,047942  
263,578000  	9,728449  	68,288560  	1256,818530  	-242,047242  	80,433791  	77,592814  	0,003995  	0,011019  	0,003963  	0,003944  	0,004457  	0,000000  	-0,000000  	26,389564  	20,698086  	23,116128  	35,655195  	52,834838  	49,589231  	51,385346  	57,223463  	68,361502  	66,148602  	68,205430  	74,371077  	25,046076  	22,443185  	24,334935  	76,422666  	-0,038338  	-0,019426  	4763,148825  	-35509,310742  	-0,021694  	-0,050000  	0,387940  	0,196572  	-2,342745  	15112,084117  	826,878095  	0,119929  	-0,047951  
264,578000  	9,729183  	68,295594  	1256,818530  	956,927186  	80,431228  	77,593251  	0,003991  	0,011046  	0,003961  	0,004002  	0,004479  	0,000001  	-0,000000  	26,392519  	20,705872  	23,115958  	35,650351  	52,831411  	49,600886  	51,402380  	57,225510  	68,361516  	66,146215  	68,214647  	74,368206  	25,045238  	22,472084  	24,342664  	76,428691  	0,008134  	0,004122  	-1010,731333  	-4419,946986  	-0,012268  	-0,049991  	0,405451  	0,205445  	-2,445911  	15170,792242  	741,841348  	0,107595  	-0,047944  
265,576000  	9,729061  	68,304933  	57,725912  	57,696365  	80,427479  	77,596342  	0,003996  	0,011049  	0,003961  	0,004014  	0,004406  	0,000001  	-0,000000  	26,392046  	20,713566  	23,119281  	35,664541  	52,841680  	49,605597  	51,399104  	57,237102  	68,360787  	66,151507  	68,208855  	74,373372  	25,042066  	22,503943  	24,340487  	76,438234  	0,017911  	0,009075  	-2225,805464  	-1,524537  	-0,051163  	-0,049982  	0,347430  	0,176045  	-2,090841  	15177,754220  	834,991291  	0,121105  	-0,047936  
266,577000  	9,726492  	68,318878  	1256,818530  	1256,670793  	80,424292  	77,590660  	0,003997  	0,011052  	0,003963  	0,004007  	0,004464  	0,000001  	-0,000000  	26,404874  	20,724719  	23,132609  	35,674973  	52,848871  	49,616363  	51,412166  	57,247656  	68,384950  	66,165969  	68,226208  	74,388494  	25,051897  	22,527519  	24,349549  	76,451960  	0,012034  	0,006098  	-1495,967126  	-1,993006  	-0,011065  	-0,049984  	0,393893  	0,199588  	-2,372542  	15183,818448  	859,493285  	0,124659  	-0,047938  
267,577000  	9,727042  	68,332325  	357,499067  	1256,670793  	80,429510  	77,583324  	0,003995  	0,011064  	0,003963  	0,004011  	0,004448  	-0,000000  	-0,000000  	26,400137  	20,714419  	23,121604  	35,667723  	52,852433  	49,616064  	51,405319  	57,232889  	68,374224  	66,158293  	68,215502  	74,381053  	25,044965  	22,529013  	24,350320  	76,440965  	0,015722  	0,007967  	-1954,862619  	16232,026643  	-0,015677  	-0,050003  	0,381262  	0,193188  	-2,306635  	15208,047771  	808,858185  	0,117315  	-0,047954  
268,580000  	9,727164  	68,339796  	-242,047242  	1256,670793  	80,433072  	77,584323  	0,003993  	0,011053  	0,003962  	0,003989  	0,004478  	-0,000000  	-0,000000  	26,399818  	20,710097  	23,118829  	35,662733  	52,848970  	49,609684  	51,402896  	57,222099  	68,378949  	66,158236  	68,213690  	74,384665  	25,043098  	22,542344  	24,342637  	76,432496  	-0,001900  	-0,000963  	236,223530  	35510,866227  	-0,021698  	-0,050003  	0,405179  	0,205307  	-2,453541  	15184,882447  	785,718982  	0,113959  	-0,047954  
269,576000  	9,725666  	68,336092  	57,725912  	1256,670793  	80,433134  	77,589817  	0,003995  	0,011034  	0,003962  	0,004013  	0,004428  	0,000001  	-0,000000  	26,399406  	20,709025  	23,121879  	35,657445  	52,841248  	49,605848  	51,401068  	57,225659  	68,380597  	66,158532  	68,208800  	74,377846  	25,052970  	22,542418  	24,343477  	76,431851  	0,017527  	0,008881  	-2179,415540  	24486,939757  	-0,018198  	-0,049990  	0,365194  	0,185047  	-2,207202  	15144,351443  	827,181722  	0,119973  	-0,047943  
270,576000  	9,724564  	68,335843  	1256,818530  	1256,670793  	80,430885  	77,593127  	0,003996  	0,011054  	0,003962  	0,003965  	0,004450  	0,000001  	-0,000000  	26,408464  	20,718723  	23,120547  	35,666505  	52,851411  	49,613931  	51,401998  	57,233137  	68,372716  	66,162115  	68,218355  	74,381738  	25,058237  	22,552357  	24,351776  	76,438823  	-0,021624  	-0,010957  	2688,884864  	-1,992904  	-0,011065  	-0,049982  	0,382998  	0,194068  	-2,310279  	15187,463918  	847,503548  	0,122920  	-0,047936  
271,579000  	9,725023  	68,337150  	357,499067  	1256,670793  	80,429260  	77,586383  	0,003994  	0,011047  	0,003962  	0,004003  	0,004488  	0,000000  	-0,000000  	26,406789  	20,717845  	23,118955  	35,669152  	52,853671  	49,612777  	51,404254  	57,230645  	68,376331  	66,162588  	68,222885  	74,384144  	25,066003  	22,557561  	24,348385  	76,441926  	0,009320  	0,004723  	-1158,965180  	16229,925210  	-0,015675  	-0,049996  	0,412866  	0,209202  	-2,494934  	15172,813416  	800,956821  	0,116169  	-0,047948  
272,578000  	9,725207  	68,334411  	957,045375  	1256,670793  	80,432572  	77,582887  	0,003993  	0,011007  	0,003961  	0,004002  	0,004467  	0,000001  	-0,000000  	26,398825  	20,710340  	23,115890  	35,665629  	52,849330  	49,614742  	51,400986  	57,226980  	68,374830  	66,155656  	68,214973  	74,372317  	25,069441  	22,548172  	24,337313  	76,433644  	0,008462  	0,004288  	-1052,236111  	4416,048343  	-0,012269  	-0,049991  	0,396113  	0,200714  	-2,399431  	15086,604736  	784,673940  	0,113807  	-0,047944  
273,577000  	9,723800  	68,329897  	1256,818530  	57,696365  	80,434009  	77,580795  	0,003996  	0,011077  	0,003961  	0,003969  	0,004461  	0,000002  	-0,000000  	26,402405  	20,715244  	23,116510  	35,663018  	52,853765  	49,617050  	51,395354  	57,233283  	68,373389  	66,154107  	68,214541  	74,373854  	25,071873  	22,539672  	24,335048  	76,432048  	-0,018370  	-0,009308  	2284,051523  	-24483,812195  	-0,018193  	-0,049978  	0,391256  	0,198252  	-2,372942  	15237,620434  	838,486532  	0,121612  	-0,047933  
274,577000  	9,724350  	68,325104  	1256,818530  	1256,670793  	80,436634  	77,583106  	0,003995  	0,011057  	0,003962  	0,004008  	0,004440  	0,000001  	-0,000000  	26,409673  	20,722105  	23,123612  	35,667954  	52,856148  	49,618430  	51,401386  	57,241162  	68,384140  	66,158842  	68,225710  	74,384156  	25,090463  	22,539996  	24,339028  	76,438270  	0,013210  	0,006693  	-1642,308694  	-1,993260  	-0,011067  	-0,049992  	0,374355  	0,189688  	-2,270688  	15194,232763  	814,860114  	0,118185  	-0,047944  
275,577000  	9,724167  	68,317073  	1256,818530  	1256,670793  	80,435009  	77,584417  	0,003997  	0,011057  	0,003962  	0,003980  	0,004444  	0,000000  	-0,000000  	26,407550  	20,721240  	23,125779  	35,681112  	52,856648  	49,623049  	51,412232  	57,235260  	68,391685  	66,162833  	68,229287  	74,385423  	25,103918  	22,547943  	24,339217  	76,441200  	-0,009770  	-0,004951  	1214,545274  	-1,993360  	-0,011067  	-0,049994  	0,377733  	0,191400  	-2,288823  	15194,509374  	854,338687  	0,123911  	-0,047947  
276,582000  	9,723616  	68,306427  	57,725912  	1256,670793  	80,431822  	77,593907  	0,003996  	0,011052  	0,003964  	0,003978  	0,004483  	0,000002  	-0,000000  	26,402571  	20,720551  	23,120328  	35,682063  	52,861497  	49,623136  	51,407070  	57,228969  	68,388946  	66,164860  	68,221742  	74,379153  	25,104725  	22,556889  	24,334283  	76,441142  	-0,011177  	-0,005663  	1389,113684  	24481,327978  	-0,018194  	-0,049978  	0,409107  	0,207298  	-2,467910  	15182,840757  	838,098172  	0,121556  	-0,047932  
277,576000  	9,723157  	68,313493  	1256,818530  	956,927186  	80,432291  	77,595624  	0,003994  	0,011034  	0,003960  	0,004025  	0,004437  	-0,000000  	-0,000000  	26,407597  	20,720101  	23,120736  	35,674821  	52,861571  	49,619745  	51,401978  	57,232764  	68,386386  	66,161895  	68,221983  	74,373031  	25,114412  	22,560052  	24,331901  	76,441223  	0,026939  	0,013650  	-3348,571242  	-4420,769239  	-0,012271  	-0,050002  	0,372322  	0,188658  	-2,245021  	15144,889102  	806,238519  	0,116935  	-0,047953  
278,576000  	9,722790  	68,323890  	1256,818530  	-242,047242  	80,437040  	77,592502  	0,003995  	0,011034  	0,003962  	0,003976  	0,004463  	-0,000001  	-0,000000  	26,414644  	20,719331  	23,125178  	35,681988  	52,861144  	49,615815  	51,408083  	57,230109  	68,388182  	66,160754  	68,230118  	74,382306  	25,116740  	22,562459  	24,336224  	76,444555  	-0,013000  	-0,006587  	1616,205029  	-35514,537455  	-0,021698  	-0,050008  	0,393146  	0,199210  	-2,377158  	15145,192596  	812,205143  	0,117800  	-0,047958  
279,577000  	9,724626  	68,327718  	1256,818530  	-242,047242  	80,435259  	77,592159  	0,003996  	0,011073  	0,003962  	0,003955  	0,004492  	0,000002  	-0,000000  	26,413007  	20,723307  	23,121224  	35,683140  	52,860523  	49,615854  	51,399183  	57,235495  	68,393315  	66,167188  	68,231025  	74,388341  	25,114786  	22,572447  	24,334740  	76,444298  	-0,029729  	-0,015064  	3696,214656  	-35495,991725  	-0,021686  	-0,049979  	0,415831  	0,210705  	-2,513054  	15227,931252  	840,795510  	0,121947  	-0,047933  
280,605000  	9,723280  	68,324107  	1256,818530  	-242,047242  	80,429822  	77,591410  	0,003995  	0,011032  	0,003963  	0,003975  	0,004473  	0,000000  	-0,000000  	26,415742  	20,725668  	23,124286  	35,676795  	52,852642  	49,617289  	51,404513  	57,242950  	68,402032  	66,166340  	68,226589  	74,381223  	25,120180  	22,588672  	24,331608  	76,444000  	-0,013641  	-0,006912  	1695,900424  	-35506,439950  	-0,021693  	-0,049995  	0,400680  	0,203028  	-2,417499  	15139,915755  	812,918313  	0,117904  	-0,047947  
281,578000  	9,722331  	68,323080  	1256,818530  	956,927186  	80,429822  	77,588256  	0,003992  	0,011078  	0,003961  	0,003988  	0,004431  	0,000000  	-0,000000  	26,404630  	20,723083  	23,130357  	35,680283  	52,865328  	49,623257  	51,409040  	57,237151  	68,399649  	66,168982  	68,226833  	74,382496  	25,118319  	22,594231  	24,337084  	76,449184  	-0,003306  	-0,001675  	411,072990  	-4420,159994  	-0,012269  	-0,049994  	0,367349  	0,186138  	-2,218855  	15238,665332  	758,653811  	0,110033  	-0,047946  
282,577000  	9,722943  	68,333601  	1256,818530  	357,439972  	80,430572  	77,587944  	0,003996  	0,011026  	0,003963  	0,004025  	0,004471  	0,000001  	-0,000000  	26,411917  	20,718591  	23,125326  	35,675420  	52,868785  	49,626570  	51,411989  	57,234163  	68,407884  	66,167187  	68,229069  	74,372952  	25,130032  	22,609263  	24,339353  	76,445261  	0,027155  	0,013760  	-3376,624318  	-16230,136951  	-0,015671  	-0,049986  	0,398933  	0,202143  	-2,410532  	15126,547146  	837,773362  	0,121509  	-0,047939  
283,578000  	9,722760  	68,342566  	357,499067  	357,439972  	80,430728  	77,587538  	0,003997  	0,010999  	0,003959  	0,003979  	0,004460  	-0,000000  	-0,000000  	26,421087  	20,734420  	23,134345  	35,683375  	52,867090  	49,631602  	51,424806  	57,238054  	68,420251  	66,178350  	68,235997  	74,386185  	25,152748  	22,653195  	24,342755  	76,451486  	-0,010673  	-0,005408  	1327,410759  	-1,685386  	-0,026854  	-0,050005  	0,390271  	0,197753  	-2,358657  	15069,780252  	859,627446  	0,124678  	-0,047955  
284,580000  	9,721414  	68,339516  	957,045375  	956,927186  	80,428729  	77,589037  	0,003997  	0,011020  	0,003964  	0,003965  	0,004457  	0,000000  	-0,000000  	26,410769  	20,709601  	23,119359  	35,670373  	52,862283  	49,615494  	51,417232  	57,231479  	68,409724  	66,165381  	68,226805  	74,380293  	25,137211  	22,675382  	24,328627  	76,440528  	-0,021893  	-0,011093  	2722,669127  	-1,916917  	-0,013764  	-0,049995  	0,387874  	0,196539  	-2,341288  	15113,654647  	851,344783  	0,123477  	-0,047947  
285,576000  	9,721047  	68,342971  	57,725912  	57,696365  	80,423011  	77,588319  	0,003994  	0,011038  	0,003961  	0,004003  	0,004464  	-0,000000  	-0,000000  	26,397678  	20,726006  	23,124071  	35,663475  	52,858614  	49,610747  	51,412445  	57,229922  	68,408084  	66,158426  	68,225914  	74,376655  	25,141773  	22,705777  	24,328604  	76,446726  	0,009153  	0,004638  	-1138,342783  	-1,525176  	-0,051185  	-0,050005  	0,393592  	0,199436  	-2,371618  	15153,072839  	787,138262  	0,114165  	-0,047956  
286,591000  	9,719946  	68,344776  	1256,818530  	1256,670793  	80,420073  	77,582949  	0,003997  	0,011046  	0,003962  	0,003980  	0,004479  	-0,000001  	-0,000000  	26,421514  	20,723291  	23,138151  	35,677391  	52,868017  	49,618719  	51,424304  	57,235204  	68,421083  	66,172507  	68,225558  	74,379521  	25,155796  	22,742464  	24,344633  	76,453459  	-0,009455  	-0,004791  	1175,951280  	-1,993791  	-0,011070  	-0,050007  	0,405633  	0,205537  	-2,446266  	15169,840727  	851,966159  	0,123567  	-0,047957  
287,578000  	9,718936  	68,343656  	1256,818530  	1256,670793  	80,421667  	77,582200  	0,003996  	0,011046  	0,003962  	0,003996  	0,004458  	0,000002  	-0,000000  	26,393478  	20,715718  	23,117705  	35,665861  	52,869032  	49,621720  	51,410390  	57,241385  	68,418062  	66,162093  	68,228835  	74,378768  	25,160555  	22,765722  	24,331393  	76,441965  	0,003545  	0,001796  	-440,934409  	-1,992845  	-0,011064  	-0,049980  	0,389121  	0,197170  	-2,348624  	15169,474977  	839,333863  	0,121735  	-0,047934  
288,576000  	9,718263  	68,340605  	1256,818530  	1256,670793  	80,425042  	77,581950  	0,003995  	0,011027  	0,003963  	0,003979  	0,004469  	-0,000000  	-0,000000  	26,403527  	20,716706  	23,119876  	35,664499  	52,862931  	49,603828  	51,409404  	57,238534  	68,421025  	66,153660  	68,222234  	74,370453  	25,165490  	22,762681  	24,326583  	76,433436  	-0,010066  	-0,005100  	1251,867098  	-1,993754  	-0,011069  	-0,050005  	0,397700  	0,201517  	-2,403466  	15130,127531  	820,021773  	0,118934  	-0,047956  
289,579000  	9,718049  	68,328870  	957,045375  	57,696365  	80,424448  	77,584167  	0,003995  	0,011073  	0,003961  	0,003966  	0,004470  	0,000001  	-0,000000  	26,399177  	20,710249  	23,111463  	35,664442  	52,868480  	49,619385  	51,409880  	57,238416  	68,418265  	66,168146  	68,230013  	74,364158  	25,166778  	22,764277  	24,323219  	76,446070  	-0,020816  	-0,010548  	2588,403047  	-21303,576279  	-0,021692  	-0,049991  	0,398161  	0,201751  	-2,403876  	15228,798581  	817,839895  	0,118618  	-0,047944  
290,580000  	9,716826  	68,321337  	357,499067  	1256,670793  	80,422448  	77,586477  	0,003995  	0,011026  	0,003963  	0,003989  	0,004484  	0,000002  	-0,000000  	26,419264  	20,725401  	23,129530  	35,667957  	52,875228  	49,623413  	51,413723  	57,247017  	68,426780  	66,163818  	68,233205  	74,380701  	25,195821  	22,744016  	24,327747  	76,444176  	-0,001937  	-0,000982  	240,881826  	16225,177969  	-0,015670  	-0,049980  	0,409884  	0,207691  	-2,470901  	15126,358965  	812,303998  	0,117815  	-0,047934  
291,582000  	9,716091  	68,319936  	1256,818530  	1256,670793  	80,423073  	77,576144  	0,003995  	0,011062  	0,003963  	0,004004  	0,004447  	-0,000000  	-0,000000  	26,407682  	20,724762  	23,120273  	35,665385  	52,871933  	49,624091  	51,415699  	57,237447  	68,427052  	66,159493  	68,227177  	74,379295  	25,198633  	22,729222  	24,324551  	76,441347  	0,009590  	0,004859  	-1192,297832  	-1,993601  	-0,011069  	-0,050001  	0,380033  	0,192566  	-2,299800  	15205,173417  	818,002301  	0,118641  	-0,047952  
292,580000  	9,715235  	68,316824  	1256,818530  	57,696365  	80,423698  	77,572585  	0,003996  	0,011026  	0,003963  	0,003968  	0,004453  	0,000002  	-0,000000  	26,417179  	20,730788  	23,132364  	35,686103  	52,884947  	49,627293  	51,428313  	57,250250  	68,442028  	66,170032  	68,241715  	74,386628  	25,197114  	22,716753  	24,339131  	76,456807  	-0,019100  	-0,009678  	2374,681333  	-24483,971830  	-0,018193  	-0,049978  	0,384791  	0,194977  	-2,332013  	15127,434283  	844,057735  	0,122420  	-0,047933  
293,576000  	9,717040  	68,316139  	1256,818530  	956,927186  	80,424667  	77,575925  	0,003997  	0,011045  	0,003962  	0,003993  	0,004455  	0,000001  	-0,000001  	26,419511  	20,725538  	23,128713  	35,679590  	52,885451  	49,622734  	51,431372  	57,251364  	68,442036  	66,167863  	68,241543  	74,385722  	25,193256  	22,703817  	24,339425  	76,459400  	0,001161  	0,000588  	-144,366111  	-4420,137658  	-0,012269  	-0,049994  	0,386622  	0,195904  	-2,341158  	15167,100081  	857,509118  	0,124371  	-0,047946  
294,580000  	9,716000  	68,322364  	1256,818530  	357,439972  	80,425791  	77,575988  	0,003996  	0,011028  	0,003962  	0,004001  	0,004447  	0,000001  	-0,000000  	26,413617  	20,716502  	23,118933  	35,671568  	52,869265  	49,628498  	51,425819  	57,239208  	68,430034  	66,159833  	68,235842  	74,376695  	25,182624  	22,679848  	24,331277  	76,446668  	0,007786  	0,003945  	-968,049438  	-16229,882542  	-0,015671  	-0,049985  	0,380296  	0,192699  	-2,303711  	15130,892987  	838,994931  	0,121686  	-0,047939  
295,576000  	9,714990  	68,324045  	1256,818530  	357,439972  	80,424417  	77,575520  	0,003995  	0,011044  	0,003963  	0,003989  	0,004464  	0,000001  	-0,000000  	26,413581  	20,725459  	23,126961  	35,676525  	52,873695  	49,627840  	51,433451  	57,240095  	68,433541  	66,167320  	68,240851  	74,384065  	25,175497  	22,659566  	24,331077  	76,444344  	-0,002326  	-0,001179  	289,264315  	-16231,363819  	-0,015672  	-0,049990  	0,393401  	0,199339  	-2,382340  	15165,337832  	820,600783  	0,119018  	-0,047943  
296,578000  	9,715480  	68,323423  	57,725912  	956,927186  	80,420292  	77,570337  	0,003995  	0,011026  	0,003962  	0,003988  	0,004469  	0,000000  	-0,000001  	26,427287  	20,741310  	23,141261  	35,696723  	52,881439  	49,636143  	51,446867  	57,254077  	68,444748  	66,182045  	68,254093  	74,392930  	25,183822  	22,659034  	24,337636  	76,453424  	-0,003123  	-0,001582  	388,263855  	21302,732067  	-0,021695  	-0,049996  	0,397523  	0,201428  	-2,408193  	15127,802863  	817,338558  	0,118545  	-0,047948  
297,577000  	9,714287  	68,328061  	1256,818530  	1256,670793  	80,415136  	77,575800  	0,003997  	0,011028  	0,003961  	0,004017  	0,004462  	0,000000  	-0,000000  	26,427021  	20,736513  	23,142527  	35,690302  	52,884403  	49,636939  	51,445253  	57,253663  	68,446861  	66,173031  	68,251943  	74,387183  	25,172365  	22,641282  	24,339381  	76,457854  	0,020801  	0,010540  	-2586,737236  	-1,993371  	-0,011067  	-0,049995  	0,392350  	0,198807  	-2,368001  	15132,358108  	871,793709  	0,126443  	-0,047947  
298,578000  	9,714654  	68,333290  	1256,818530  	657,183579  	80,414324  	77,577049  	0,003995  	0,011009  	0,003962  	0,004016  	0,004494  	0,000000  	-0,000000  	26,414835  	20,730044  	23,131488  	35,676634  	52,881732  	49,631299  	51,434533  	57,243124  	68,447144  	66,172006  	68,241890  	74,382184  	25,161567  	22,615758  	24,329535  	76,451996  	0,019958  	0,010113  	-2482,113385  	-9726,200584  	-0,013765  	-0,050000  	0,417226  	0,211412  	-2,516313  	15090,751078  	821,561092  	0,119157  	-0,047951  
299,578000  	9,714654  	68,340854  	1256,818530  	657,183579  	80,413762  	77,574271  	0,003995  	0,011035  	0,003962  	0,004005  	0,004461  	0,000002  	-0,000000  	26,412179  	20,737441  	23,136671  	35,676714  	52,884010  	49,629437  	51,435695  	57,247841  	68,447259  	66,177174  	68,242242  	74,382268  	25,161737  	22,604343  	24,328670  	76,449001  	0,010867  	0,005506  	-1351,633338  	-9722,529664  	-0,013760  	-0,049979  	0,391574  	0,198413  	-2,363447  	15145,696298  	815,022519  	0,118209  	-0,047933  
300,579000  	9,714409  	68,345025  	57,725912  	57,696365  	80,413887  	77,569963  	0,003996  	0,011020  	0,003963  	0,003959  	0,004461  	-0,000000  	-0,000000  	26,412725  	20,735323  	23,136027  	35,681338  	52,885329  	49,630405  	51,439692  	57,250990  	68,445130  	66,172356  	68,246374  	74,379523  	25,150937  	22,599510  	24,332264  	76,448082  	-0,026228  	-0,013290  	3262,423272  	-1,525041  	-0,051180  	-0,050000  	0,391219  	0,198234  	-2,364991  	15113,878200  	830,479252  	0,120451  	-0,047952  
