06/29/2020 14:22:24
Tempo T_f_e T_f_s AR AR T_q_e T_q_s Corrente_P_f Corrente_P_q Corrente_P_RESERVA Corrente_eletromag_f Corrente_eletromag_q AR AR T_1 T_2 T_3 T_4 T_5 T_6 T_7 T_8 T_9 T_10 T_11 T_12 T_13 T_14 T_15 T_16 Velocidade_f_(m/s) Vazao_f_(L/s) q_f_(W) AR AR AR Velocidade_q_(m/s) Vazao_q_(L/s) q_q_(W) DeltaP_q_(Pa) DeltaP_f_(Pa) DeltaP_f_(Psi) AR
0,008000  	14,111114  	42,077988  	57,725912  	1256,670793  	79,906144  	73,696468  	0,004292  	0,008539  	0,003962  	0,004111  	0,004381  	-0,000000  	-0,000000  	22,478777  	18,385678  	20,003668  	23,155740  	32,166257  	29,675912  	31,630209  	33,658271  	42,883021  	40,521976  	44,824151  	67,597020  	23,839289  	22,326105  	22,525161  	72,424506  	0,096295  	0,048793  	-5710,139173  	24492,582024  	-0,018202  	-0,050003  	0,328402  	0,166404  	-4,331947  	9762,940231  	7221,813742  	1,047436  	-0,047954  
2,548000  	14,109399  	42,078606  	1256,818530  	657,183579  	79,898271  	73,692789  	0,004300  	0,008526  	0,003964  	0,004055  	0,004344  	0,000002  	-0,000000  	22,484825  	18,391747  	20,014878  	23,153169  	32,172724  	29,689636  	31,644128  	33,664070  	42,887248  	40,530359  	44,828284  	67,598740  	23,842836  	22,308348  	22,537588  	72,423002  	0,051543  	0,026117  	-3056,687557  	-9722,581659  	-0,013760  	-0,049979  	0,299000  	0,151505  	-3,941431  	9735,454534  	7397,183056  	1,072871  	-0,047934  
3,551000  	14,111512  	42,075363  	1256,818530  	-242,047242  	79,898208  	73,683840  	0,004295  	0,008514  	0,003962  	0,004015  	0,004381  	0,000000  	-0,000000  	22,482304  	18,399461  	20,007524  	23,160778  	32,186336  	29,696115  	31,644910  	33,681214  	42,894586  	40,544367  	44,819193  	67,593776  	23,851386  	22,297303  	22,536310  	72,431701  	0,019187  	0,009722  	-1137,635912  	-35509,279537  	-0,021694  	-0,049999  	0,328227  	0,166315  	-4,332901  	9709,855595  	7283,160521  	1,056333  	-0,047951  
4,548000  	14,110103  	42,071348  	57,725912  	-242,047242  	79,897146  	73,690824  	0,004297  	0,008532  	0,003964  	0,004088  	0,004352  	-0,000000  	-0,000000  	22,496870  	18,395984  	20,017324  	23,169461  	32,180925  	29,688704  	31,639842  	33,663035  	42,894490  	40,539634  	44,830808  	67,585910  	23,854210  	22,286295  	22,547608  	72,430947  	0,077666  	0,039354  	-4604,566133  	-27700,182064  	-0,093561  	-0,050001  	0,305008  	0,154550  	-4,021181  	9749,344531  	7324,764483  	1,062367  	-0,047952  
5,549000  	14,108204  	42,067920  	57,725912  	-242,047242  	79,896490  	73,699212  	0,004297  	0,008531  	0,003965  	0,004023  	0,004373  	0,000001  	-0,000000  	22,488927  	18,399649  	20,010190  	23,165507  	32,179644  	29,686793  	31,631196  	33,663815  	42,884862  	40,539781  	44,835395  	67,593400  	23,843674  	22,277769  	22,537170  	72,423635  	0,024957  	0,012646  	-1479,517550  	-27695,143397  	-0,093544  	-0,049990  	0,321414  	0,162863  	-4,231297  	9745,868848  	7333,682644  	1,063661  	-0,047943  
6,550000  	14,109185  	42,064708  	1256,818530  	-242,047242  	79,903551  	73,701457  	0,004298  	0,008527  	0,003961  	0,004038  	0,004374  	0,000000  	-0,000000  	22,490934  	18,396207  	20,008458  	23,163891  	32,181670  	29,694739  	31,642171  	33,675356  	42,895110  	40,543866  	44,828724  	67,595405  	23,862698  	22,290309  	22,544159  	72,429291  	0,037340  	0,018921  	-2213,338687  	-35509,497967  	-0,021694  	-0,050000  	0,322562  	0,163445  	-4,249716  	9738,286441  	7357,690361  	1,067143  	-0,047951  
7,548000  	14,107531  	42,069063  	357,499067  	657,183579  	79,913236  	73,688143  	0,004290  	0,008534  	0,003963  	0,004072  	0,004327  	0,000000  	-0,000000  	22,490864  	18,401148  	20,003882  	23,161295  	32,180306  	29,682812  	31,636244  	33,664019  	42,892289  	40,546250  	44,826574  	67,594480  	23,866390  	22,292378  	22,539626  	72,421689  	0,064934  	0,032903  	-3849,763845  	7100,003454  	-0,021695  	-0,049999  	0,285544  	0,144687  	-3,775948  	9752,450220  	7169,999440  	1,039920  	-0,047950  
8,549000  	14,101160  	42,071843  	-242,047242  	1256,670793  	79,918359  	73,677229  	0,004299  	0,008510  	0,003962  	0,004021  	0,004382  	0,000000  	-0,000000  	22,488120  	18,403293  	20,008000  	23,163905  	32,177780  	29,681464  	31,635943  	33,663913  	42,885104  	40,534631  	44,832282  	67,597165  	23,860348  	22,300867  	22,545061  	72,423031  	0,024033  	0,012178  	-1425,345289  	35508,801581  	-0,021696  	-0,050000  	0,329113  	0,166764  	-4,363296  	9700,931162  	7365,747068  	1,068311  	-0,047951  
9,579000  	14,095463  	42,066932  	1256,818530  	57,696365  	79,917484  	73,683964  	0,004298  	0,008519  	0,003962  	0,004042  	0,004387  	-0,000000  	-0,000000  	22,496621  	18,402610  	20,004702  	23,166217  	32,183005  	29,690468  	31,643648  	33,664719  	42,887093  	40,534787  	44,835267  	67,596614  	23,873218  	22,308538  	22,547026  	72,431350  	0,040813  	0,020680  	-2420,563884  	-24493,747187  	-0,018200  	-0,050001  	0,332826  	0,168645  	-4,407149  	9720,957547  	7340,503660  	1,064650  	-0,047952  
10,547000  	14,101773  	42,067488  	1256,818530  	1256,670793  	79,917672  	73,702736  	0,004292  	0,008542  	0,003962  	0,004064  	0,004333  	-0,000000  	-0,000000  	22,494199  	18,395503  	20,007501  	23,161245  	32,189512  	29,690267  	31,646748  	33,674438  	42,890924  	40,542335  	44,828105  	67,592687  	23,874858  	22,312179  	22,550887  	72,429216  	0,058778  	0,029783  	-3485,329246  	-1,993649  	-0,011069  	-0,050003  	0,289665  	0,146775  	-3,824206  	9770,976112  	7215,875363  	1,046574  	-0,047954  
11,548000  	14,108848  	42,067766  	357,499067  	1256,670793  	79,921983  	73,696219  	0,004301  	0,008519  	0,003963  	0,004058  	0,004406  	0,000000  	-0,000000  	22,490510  	18,390075  	20,004621  	23,152301  	32,185206  	29,686465  	31,638909  	33,668135  	42,885679  	40,543328  	44,816735  	67,582121  	23,865903  	22,318443  	22,545195  	72,424833  	0,053260  	0,026987  	-3157,354646  	16230,801204  	-0,015675  	-0,049999  	0,347776  	0,176221  	-4,599389  	9720,845771  	7419,376072  	1,076090  	-0,047951  
12,548000  	14,115831  	42,063689  	957,045375  	1256,670793  	79,919859  	73,686490  	0,004292  	0,008543  	0,003963  	0,004046  	0,004349  	0,000001  	-0,000000  	22,486224  	18,388984  	20,004956  	23,155999  	32,179783  	29,683713  	31,632293  	33,659223  	42,883738  	40,533981  	44,812470  	67,587902  	23,862609  	22,324966  	22,541582  	72,420119  	0,044230  	0,022412  	-2620,993375  	4415,896327  	-0,012268  	-0,049989  	0,302554  	0,153306  	-4,006202  	9773,458541  	7228,380559  	1,048388  	-0,047942  
13,547000  	14,119292  	42,062948  	57,725912  	1256,670793  	79,919640  	73,703827  	0,004298  	0,008512  	0,003962  	0,004062  	0,004373  	-0,000000  	-0,000000  	22,482490  	18,391000  	20,009183  	23,165861  	32,183899  	29,684634  	31,638182  	33,666152  	42,886145  	40,532309  	44,815868  	67,594673  	23,870016  	22,339505  	22,544865  	72,424783  	0,056898  	0,028831  	-3371,171945  	24491,550777  	-0,018201  	-0,050001  	0,321374  	0,162843  	-4,243434  	9706,533428  	7354,978901  	1,066750  	-0,047952  
14,549000  	14,116535  	42,063380  	1256,818530  	657,183579  	79,920202  	73,693475  	0,004295  	0,008526  	0,003963  	0,004062  	0,004373  	0,000001  	-0,000000  	22,489714  	18,399362  	20,013214  	23,160455  	32,183157  	29,683653  	31,639843  	33,669364  	42,885846  	40,537247  	44,819436  	67,595190  	23,879083  	22,360903  	22,547729  	72,430348  	0,056736  	0,028749  	-3361,954525  	-9725,057428  	-0,013764  	-0,049993  	0,321432  	0,162872  	-4,251637  	9735,554284  	7284,784573  	1,056569  	-0,047946  
15,549000  	14,121130  	42,063195  	357,499067  	657,183579  	79,918890  	73,689764  	0,004296  	0,008510  	0,003962  	0,004050  	0,004380  	0,000000  	-0,000000  	22,493843  	18,401195  	20,014594  	23,150547  	32,180874  	29,682675  	31,635246  	33,663516  	42,888023  	40,538984  	44,816150  	67,594137  	23,882245  	22,378228  	22,549314  	72,430074  	0,047400  	0,024018  	-2808,277912  	7100,108483  	-0,021696  	-0,050000  	0,327573  	0,165983  	-4,334530  	9700,561875  	7301,413447  	1,058980  	-0,047951  
16,548000  	14,127684  	42,064492  	957,045375  	1256,670793  	79,918328  	73,700054  	0,004294  	0,008519  	0,003964  	0,004063  	0,004380  	0,000000  	-0,000000  	22,492347  	18,396001  	20,012631  	23,158904  	32,183002  	29,685764  	31,634863  	33,666208  	42,889169  	40,540368  	44,812349  	67,592207  	23,877688  	22,391144  	22,549411  	72,428736  	0,057512  	0,029142  	-3406,679964  	4416,724004  	-0,012270  	-0,050000  	0,327101  	0,165744  	-4,320755  	9720,370367  	7251,985794  	1,051812  	-0,047951  
17,550000  	14,130655  	42,063566  	957,045375  	-242,047242  	79,911455  	73,707693  	0,004298  	0,008537  	0,003963  	0,004092  	0,004360  	0,000001  	-0,000000  	22,494637  	18,398772  	20,011838  	23,167816  	32,181172  	29,687156  	31,633915  	33,674319  	42,887003  	40,540598  	44,813476  	67,593213  	23,872436  	22,401449  	22,548785  	72,425230  	0,081156  	0,041123  	-4806,601626  	-34188,605798  	-0,026847  	-0,049991  	0,311674  	0,157927  	-4,107371  	9759,146905  	7344,196612  	1,065186  	-0,047944  
18,549000  	14,131145  	42,065172  	-242,047242  	357,439972  	79,905644  	73,693724  	0,004296  	0,008528  	0,003963  	0,004084  	0,004359  	0,000000  	-0,000000  	22,488054  	18,400629  	20,010485  	23,164101  	32,186653  	29,690758  	31,640150  	33,673862  	42,893520  	40,541017  	44,812556  	67,588076  	23,875858  	22,417674  	22,548957  	72,430050  	0,074749  	0,037876  	-4427,309002  	30939,643442  	-0,051177  	-0,049995  	0,310614  	0,157390  	-4,098778  	9740,902577  	7293,469717  	1,057828  	-0,047947  
19,551000  	14,129675  	42,064060  	657,272221  	1256,670793  	79,900926  	73,697123  	0,004294  	0,008534  	0,003963  	0,004080  	0,004371  	0,000000  	-0,000000  	22,488447  	18,401487  	20,014773  	23,167194  	32,186348  	29,691626  	31,646197  	33,670592  	42,895822  	40,541960  	44,816921  	67,592391  	23,871431  	22,444757  	22,552125  	72,431918  	0,071624  	0,036292  	-4242,248320  	9721,513941  	-0,013764  	-0,049994  	0,319866  	0,162079  	-4,215359  	9753,709474  	7259,371698  	1,052883  	-0,047946  
20,549000  	14,127347  	42,063195  	1256,818530  	1256,670793  	79,899989  	73,699368  	0,004301  	0,008502  	0,003962  	0,004092  	0,004347  	0,000000  	-0,000000  	22,494643  	18,402527  	20,014203  	23,157698  	32,174237  	29,687033  	31,634131  	33,670249  	42,887204  	40,541455  	44,821082  	67,592634  	23,858493  	22,453775  	22,556094  	72,421635  	0,080793  	0,040938  	-4785,596733  	-1,993518  	-0,011068  	-0,049999  	0,301220  	0,152630  	-3,967588  	9683,799646  	7405,324496  	1,074052  	-0,047950  
21,547000  	14,126153  	42,063072  	1256,818530  	1256,670793  	79,897396  	73,686459  	0,004292  	0,008534  	0,003963  	0,004057  	0,004373  	-0,000000  	-0,000001  	22,489630  	18,408585  	20,012205  	23,156445  	32,178090  	29,690918  	31,632948  	33,662904  	42,890248  	40,536629  	44,815506  	67,583862  	23,848303  	22,450036  	22,546391  	72,434092  	0,053011  	0,026861  	-3140,086289  	-1,993604  	-0,011069  	-0,050001  	0,321290  	0,162800  	-4,238976  	9754,232277  	7213,340430  	1,046207  	-0,047953  
22,552000  	14,126214  	42,063133  	1256,818530  	657,183579  	79,894897  	73,688766  	0,004298  	0,008529  	0,003964  	0,004059  	0,004383  	0,000001  	-0,000000  	22,486192  	18,396710  	20,012629  	23,144669  	32,175907  	29,690002  	31,640945  	33,668997  	42,891935  	40,540902  	44,811776  	67,582325  	23,844169  	22,458437  	22,538442  	72,467214  	0,054725  	0,027730  	-3241,655701  	-9723,333791  	-0,013761  	-0,049983  	0,329785  	0,167105  	-4,347701  	9742,780846  	7357,916316  	1,067176  	-0,047937  
23,548000  	14,128052  	42,065542  	1256,818530  	657,183579  	79,900926  	73,699649  	0,004295  	0,008516  	0,003960  	0,004105  	0,004336  	-0,000001  	-0,000000  	22,496427  	18,407036  	20,011931  	23,157086  	32,181402  	29,691819  	31,638358  	33,672507  	42,897867  	40,547364  	44,809827  	67,585102  	23,849525  	22,477310  	22,558119  	72,467411  	0,091350  	0,046288  	-5411,248666  	-9727,818097  	-0,013768  	-0,050009  	0,292403  	0,148163  	-3,851866  	9714,833186  	7283,640675  	1,056403  	-0,047959  
24,551000  	14,127745  	42,066222  	57,725912  	1256,670793  	79,910236  	73,692227  	0,004297  	0,008513  	0,003962  	0,004072  	0,004357  	-0,000000  	-0,000000  	22,496715  	18,402908  	20,013030  	23,161399  	32,180399  	29,690433  	31,637084  	33,675203  	42,897800  	40,543587  	44,819714  	67,594641  	23,825928  	22,497904  	22,565803  	72,452471  	0,064869  	0,032870  	-3842,739982  	24492,797241  	-0,018202  	-0,050004  	0,308710  	0,156426  	-4,077649  	9706,933135  	7321,996534  	1,061966  	-0,047955  
25,549000  	14,121467  	42,065172  	57,725912  	1256,670793  	79,915641  	73,689702  	0,004295  	0,008525  	0,003964  	0,004064  	0,004381  	0,000000  	-0,000000  	22,489469  	18,389977  	20,009686  	23,153563  	32,183928  	29,685009  	31,646734  	33,661267  	42,886410  	40,542197  	44,814603  	67,586992  	23,812563  	22,491745  	22,556510  	72,427892  	0,058574  	0,029680  	-3470,504338  	24490,316867  	-0,018201  	-0,049998  	0,327933  	0,166166  	-4,337077  	9732,922584  	7285,836675  	1,056721  	-0,047950  
26,549000  	14,115096  	42,067519  	1256,818530  	1256,670793  	79,918640  	73,690575  	0,004297  	0,008524  	0,003962  	0,004056  	0,004334  	-0,000000  	-0,000000  	22,494175  	18,407393  	20,006420  	23,164723  	32,198073  	29,691667  	31,650519  	33,680664  	42,893885  	40,544230  	44,816178  	67,590483  	23,827468  	22,491133  	22,562333  	72,420210  	0,051977  	0,026337  	-3080,580447  	-1,993774  	-0,011070  	-0,050006  	0,290598  	0,147248  	-3,844622  	9731,861415  	7315,408534  	1,061010  	-0,047957  
27,549000  	14,109675  	42,068816  	1256,818530  	357,439972  	79,916235  	73,689140  	0,004295  	0,008518  	0,003960  	0,004049  	0,004342  	0,000000  	-0,000000  	22,513164  	18,414153  	20,005399  	23,165553  	32,185151  	29,685728  	31,641154  	33,677368  	42,893793  	40,551868  	44,822556  	67,589621  	23,824501  	22,500184  	22,568841  	72,460523  	0,046274  	0,023447  	-2743,218044  	-16233,753360  	-0,015675  	-0,049998  	0,297132  	0,150559  	-3,930455  	9719,050273  	7281,790669  	1,056134  	-0,047950  
28,550000  	14,105938  	42,064616  	57,725912  	956,927186  	79,914798  	73,701738  	0,004292  	0,008537  	0,003963  	0,004047  	0,004354  	-0,000000  	-0,000000  	22,493302  	18,406471  	20,012116  	23,164489  	32,181897  	29,693335  	31,640165  	33,670165  	42,895362  	40,538161  	44,825592  	67,594987  	23,828483  	22,489522  	22,562841  	72,436670  	0,044494  	0,022545  	-2637,650638  	21306,190829  	-0,021698  	-0,050005  	0,306794  	0,155455  	-4,049119  	9760,006452  	7227,088379  	1,048201  	-0,047956  
29,548000  	14,113013  	42,069990  	1256,818530  	1256,670793  	79,912923  	73,701270  	0,004299  	0,008522  	0,003964  	0,004058  	0,004324  	0,000000  	-0,000000  	22,484285  	18,408390  	20,022840  	23,162532  	32,196094  	29,681503  	31,646343  	33,667550  	42,897306  	40,538427  	44,823444  	67,591933  	23,817621  	22,481653  	22,564524  	72,437135  	0,053793  	0,027257  	-3188,710026  	-1,993558  	-0,011068  	-0,050000  	0,282658  	0,143225  	-3,729728  	9728,220897  	7369,214065  	1,068814  	-0,047951  
30,549000  	14,120915  	42,071843  	1256,818530  	657,183579  	79,910486  	73,698339  	0,004294  	0,008529  	0,003961  	0,004060  	0,004351  	0,000001  	-0,000000  	22,499940  	18,400104  	20,012016  	23,162458  	32,194004  	29,690643  	31,639513  	33,676701  	42,893567  	40,535990  	44,811105  	67,591077  	23,833954  	22,456819  	22,561661  	72,433541  	0,054955  	0,027846  	-3256,871383  	-9724,422816  	-0,013763  	-0,049990  	0,304613  	0,154350  	-4,019746  	9742,824000  	7251,435029  	1,051732  	-0,047943  
31,549000  	14,122477  	42,069156  	1256,818530  	-242,047242  	79,916141  	73,694597  	0,004296  	0,008530  	0,003962  	0,004067  	0,004350  	-0,000000  	-0,000000  	22,497232  	18,406266  	20,021987  	23,160230  	32,182860  	29,692140  	31,648434  	33,670185  	42,898840  	40,545283  	44,818148  	67,595646  	23,841880  	22,449580  	22,565463  	72,429971  	0,060647  	0,030730  	-3593,683817  	-35512,459771  	-0,021696  	-0,050004  	0,303468  	0,153769  	-4,010688  	9743,931861  	7295,637473  	1,058143  	-0,047955  
32,549000  	14,120027  	42,068229  	1256,818530  	956,927186  	79,914954  	73,690232  	0,004293  	0,008528  	0,003963  	0,004055  	0,004340  	0,000001  	-0,000000  	22,490785  	18,404362  	20,016313  	23,161189  	32,186047  	29,680629  	31,640282  	33,668791  	42,884424  	40,544117  	44,816887  	67,590781  	23,821679  	22,420698  	22,568836  	72,422388  	0,051184  	0,025935  	-3033,086723  	-4419,809728  	-0,012268  	-0,049989  	0,295614  	0,149790  	-3,908882  	9740,357136  	7246,167453  	1,050968  	-0,047942  
33,549000  	14,121068  	42,069742  	957,045375  	57,696365  	79,914923  	73,701364  	0,004298  	0,008525  	0,003963  	0,004072  	0,004349  	-0,000000  	-0,000000  	22,494427  	18,412629  	20,019547  	23,169359  	32,197722  	29,693553  	31,647625  	33,683863  	42,896850  	40,548992  	44,825174  	67,597574  	23,829940  	22,394050  	22,577273  	72,436176  	0,065109  	0,032991  	-3858,378321  	-21306,943383  	-0,021695  	-0,050000  	0,302715  	0,153388  	-3,995606  	9733,427701  	7352,789962  	1,066432  	-0,047952  
34,551000  	14,121375  	42,071966  	357,499067  	657,183579  	79,923233  	73,696873  	0,004293  	0,008512  	0,003964  	0,004083  	0,004338  	0,000000  	-0,000000  	22,496059  	18,414712  	20,020382  	23,166531  	32,191124  	29,693961  	31,646162  	33,679581  	42,899247  	40,546537  	44,819163  	67,599318  	23,835674  	22,370159  	22,572860  	72,435073  	0,074074  	0,037534  	-4389,931184  	7099,960819  	-0,021695  	-0,049998  	0,293867  	0,148905  	-3,886810  	9706,804380  	7231,219119  	1,048800  	-0,047950  
35,549000  	14,127072  	42,072244  	357,499067  	657,183579  	79,924076  	73,691697  	0,004297  	0,008537  	0,003962  	0,004053  	0,004374  	0,000000  	-0,000000  	22,494437  	18,411971  	20,019194  	23,159829  	32,181904  	29,691487  	31,644784  	33,671938  	42,897783  	40,544652  	44,817019  	67,585654  	23,845883  	22,350141  	22,571042  	72,432803  	0,049850  	0,025259  	-2953,745865  	7099,392002  	-0,021693  	-0,049994  	0,322353  	0,163339  	-4,267693  	9759,351357  	7316,291171  	1,061138  	-0,047946  
36,552000  	14,137914  	42,071565  	-242,047242  	57,696365  	79,928200  	73,697435  	0,004296  	0,008536  	0,003960  	0,004067  	0,004363  	-0,000000  	-0,000000  	22,497852  	18,412502  	20,020673  	23,168254  	32,189011  	29,693555  	31,645602  	33,670983  	42,897417  	40,547995  	44,821946  	67,591097  	23,846545  	22,335637  	22,573776  	72,436094  	0,060840  	0,030828  	-3603,457384  	27701,378633  	-0,093575  	-0,050004  	0,313872  	0,159041  	-4,154339  	9757,267221  	7306,758695  	1,059756  	-0,047955  
37,551000  	14,144530  	42,071843  	1256,818530  	1256,670793  	79,928919  	73,697778  	0,004292  	0,008527  	0,003964  	0,004042  	0,004359  	0,000000  	-0,000000  	22,503291  	18,422943  	20,028457  	23,172746  	32,202180  	29,699207  	31,654516  	33,677215  	42,903489  	40,555853  	44,831435  	67,600905  	23,845188  	22,329561  	22,581599  	72,445171  	0,040875  	0,020712  	-2420,378303  	-1,993443  	-0,011068  	-0,049997  	0,310351  	0,157257  	-4,107981  	9738,014074  	7223,557832  	1,047688  	-0,047949  
38,551000  	14,144652  	42,069248  	1256,818530  	657,183579  	79,923983  	73,697591  	0,004302  	0,008530  	0,003964  	0,004041  	0,004378  	0,000001  	-0,000000  	22,504442  	18,414466  	20,026647  	23,165487  	32,203175  	29,701562  	31,658939  	33,677733  	42,904747  	40,549675  	44,828447  	67,595946  	23,844360  	22,325309  	22,577053  	72,449040  	0,040074  	0,020306  	-2372,715499  	-9725,086630  	-0,013764  	-0,049994  	0,325885  	0,165128  	-4,310308  	9743,984212  	7438,702285  	1,078893  	-0,047946  
39,548000  	14,141253  	42,067673  	1256,818530  	657,183579  	79,920702  	73,713306  	0,004294  	0,008539  	0,003961  	0,004049  	0,004372  	0,000001  	-0,000000  	22,501500  	18,407469  	20,014872  	23,162034  	32,194097  	29,697391  	31,649522  	33,673179  	42,900412  	40,546722  	44,823273  	67,589130  	23,846327  	22,320103  	22,574085  	72,442748  	0,046271  	0,023446  	-2739,839938  	-9724,890763  	-0,013763  	-0,049992  	0,321092  	0,162699  	-4,233967  	9763,122752  	7258,284289  	1,052725  	-0,047945  
40,549000  	14,136046  	42,065882  	1256,818530  	1256,670793  	79,920640  	73,709876  	0,004297  	0,008518  	0,003962  	0,004078  	0,004363  	0,000001  	-0,000000  	22,501406  	18,414055  	20,019870  	23,170901  	32,195631  	29,695644  	31,648658  	33,677566  	42,900298  	40,550318  	44,828210  	67,596805  	23,848699  	22,316041  	22,574352  	72,437636  	0,069488  	0,035210  	-4115,073318  	-1,993055  	-0,011066  	-0,049986  	0,313410  	0,158807  	-4,134918  	9717,800923  	7318,473049  	1,061455  	-0,047939  
41,550000  	14,129736  	42,069773  	57,725912  	1256,670793  	79,915173  	73,707880  	0,004294  	0,008520  	0,003965  	0,004039  	0,004377  	-0,000000  	-0,000000  	22,496698  	18,413265  	20,026153  	23,172472  	32,200928  	29,696084  	31,651270  	33,681940  	42,899717  	40,549263  	44,828385  	67,599539  	23,845664  	22,304252  	22,576814  	72,434076  	0,038236  	0,019374  	-2265,163853  	24492,020667  	-0,018202  	-0,050002  	0,325128  	0,164745  	-4,287116  	9722,808934  	7257,867685  	1,052665  	-0,047953  
42,551000  	14,132187  	42,067241  	1256,818530  	1256,670793  	79,912673  	73,701083  	0,004298  	0,008534  	0,003963  	0,004064  	0,004378  	0,000000  	-0,000000  	22,489107  	18,412144  	20,018841  	23,163109  	32,196336  	29,696646  	31,645358  	33,678929  	42,901921  	40,548689  	44,824429  	67,587801  	23,846915  	22,292354  	22,584854  	72,432210  	0,058370  	0,029577  	-3457,339942  	-1,993409  	-0,011067  	-0,049996  	0,325993  	0,165183  	-4,301496  	9753,887043  	7353,820882  	1,066582  	-0,047948  
43,549000  	14,136505  	42,070484  	357,499067  	357,439972  	79,907050  	73,697684  	0,004294  	0,008522  	0,003961  	0,004090  	0,004379  	0,000001  	-0,000000  	22,491879  	18,415844  	20,022820  	23,162974  	32,196037  	29,701989  	31,647033  	33,678987  	42,907779  	40,549593  	44,825716  	67,587219  	23,853990  	22,301131  	22,584835  	72,437240  	0,079166  	0,040114  	-4688,873984  	-1,685048  	-0,026849  	-0,049994  	0,326189  	0,165282  	-4,302530  	9727,983195  	7252,755453  	1,051923  	-0,047946  
44,547000  	14,137179  	42,070113  	957,045375  	-242,047242  	79,905238  	73,695439  	0,004297  	0,008533  	0,003962  	0,004040  	0,004378  	0,000000  	-0,000000  	22,492560  	18,413186  	20,025849  	23,162890  	32,197126  	29,700240  	31,647781  	33,675755  	42,902323  	40,549728  	44,825049  	67,592794  	23,846364  	22,316506  	22,587114  	72,437154  	0,038842  	0,019681  	-2300,446411  	-34190,220879  	-0,026848  	-0,049994  	0,325992  	0,165183  	-4,300238  	9751,873651  	7326,056663  	1,062555  	-0,047946  
45,552000  	14,132064  	42,075549  	57,725912  	1256,670793  	79,902520  	73,703702  	0,004301  	0,008534  	0,003962  	0,004105  	0,004378  	0,000001  	-0,000000  	22,489539  	18,413421  	20,016145  	23,160088  	32,190737  	29,692931  	31,644318  	33,668131  	42,899371  	40,545261  	44,825203  	67,591512  	23,830552  	22,326678  	22,589628  	72,434110  	0,091300  	0,046263  	-5409,447688  	24487,944102  	-0,018199  	-0,049993  	0,325622  	0,164995  	-4,287769  	9753,050134  	7406,637860  	1,074242  	-0,047945  
46,548000  	14,124039  	42,082528  	657,272221  	1256,670793  	79,900395  	73,694597  	0,004289  	0,008526  	0,003962  	0,004071  	0,004350  	-0,000000  	-0,000001  	22,492328  	18,417612  	20,010166  	23,165160  	32,190874  	29,700001  	31,641528  	33,668980  	42,898798  	40,549762  	44,820353  	67,595962  	23,833533  	22,343980  	22,581905  	72,437322  	0,064003  	0,032431  	-3794,150621  	9722,944309  	-0,013766  	-0,050002  	0,303568  	0,153820  	-4,001856  	9736,803634  	7164,046938  	1,039057  	-0,047953  
47,549000  	14,117883  	42,085308  	-242,047242  	1256,670793  	79,907831  	73,704263  	0,004302  	0,008541  	0,003962  	0,004107  	0,004385  	0,000001  	-0,000000  	22,502997  	18,410028  	20,013736  	23,162824  	32,188356  	29,697858  	31,637216  	33,676267  	42,898465  	40,546635  	44,825360  	67,592707  	23,828560  	22,352448  	22,585017  	72,438723  	0,093677  	0,047467  	-5555,000794  	35498,114312  	-0,021690  	-0,049983  	0,331290  	0,167867  	-4,365749  	9767,254238  	7437,092355  	1,078659  	-0,047937  
48,552000  	14,114943  	42,083393  	957,045375  	1256,670793  	79,909955  	73,696406  	0,004295  	0,008517  	0,003963  	0,004099  	0,004326  	0,000000  	-0,000000  	22,499940  	18,407406  	20,015357  	23,171907  	32,192158  	29,699010  	31,644821  	33,677282  	42,898672  	40,548917  	44,833246  	67,589108  	23,820785  	22,364232  	22,586998  	72,435377  	0,087024  	0,044096  	-5160,711651  	4416,721417  	-0,012270  	-0,050000  	0,284626  	0,144222  	-3,756838  	9715,858983  	7280,562039  	1,055956  	-0,047951  
49,548000  	14,110348  	42,082806  	57,725912  	-242,047242  	79,903988  	73,697123  	0,004297  	0,008530  	0,003962  	0,004074  	0,004364  	0,000000  	-0,000000  	22,494425  	18,403681  	20,012177  	23,158035  	32,180656  	29,697362  	31,639352  	33,677464  	42,886083  	40,539713  	44,818182  	67,584295  	23,810365  	22,364423  	22,584693  	72,424473  	0,066451  	0,033671  	-3941,257714  	-27697,975112  	-0,093554  	-0,049996  	0,314889  	0,159557  	-4,151819  	9745,401227  	7320,315994  	1,061722  	-0,047948  
50,551000  	14,106551  	42,083362  	657,272221  	357,439972  	79,908987  	73,692009  	0,004291  	0,008532  	0,003965  	0,004069  	0,004329  	0,000001  	-0,000000  	22,497963  	18,410053  	20,024132  	23,167869  	32,188281  	29,700381  	31,649260  	33,673529  	42,903510  	40,550772  	44,816537  	67,591214  	23,819974  	22,391413  	22,578169  	72,438870  	0,062766  	0,031804  	-3723,251069  	-7101,670406  	-0,021690  	-0,049985  	0,287007  	0,145428  	-3,790345  	9748,321564  	7192,637305  	1,043204  	-0,047939  
51,549000  	14,106642  	42,081694  	657,272221  	1256,670793  	79,909643  	73,692539  	0,004299  	0,008531  	0,003964  	0,004088  	0,004357  	0,000001  	-0,000000  	22,513652  	18,421092  	20,020009  	23,174782  	32,190536  	29,696933  	31,657811  	33,677987  	42,911996  	40,552200  	44,825206  	67,593835  	23,820802  	22,417221  	22,592008  	72,439126  	0,077695  	0,039369  	-4608,543700  	9720,706555  	-0,013763  	-0,049989  	0,309359  	0,156754  	-4,085622  	9745,640343  	7366,008329  	1,068349  	-0,047942  
52,548000  	14,105356  	42,080891  	1256,818530  	1256,670793  	79,902145  	73,703577  	0,004292  	0,008534  	0,003962  	0,004066  	0,004345  	-0,000001  	-0,000000  	22,506326  	18,423761  	20,037413  	23,191473  	32,182674  	29,704426  	31,664630  	33,687706  	42,919022  	40,555093  	44,832675  	67,601863  	23,829966  	22,443930  	22,596966  	72,444785  	0,060271  	0,030540  	-3575,071140  	-1,993960  	-0,011071  	-0,050011  	0,299121  	0,151567  	-3,938647  	9752,179268  	7213,474591  	1,046226  	-0,047961  
53,550000  	14,103518  	42,076413  	-242,047242  	1256,670793  	79,902582  	73,702299  	0,004296  	0,008522  	0,003961  	0,004070  	0,004356  	0,000001  	-0,000000  	22,501600  	18,416003  	20,017000  	23,167650  	32,193416  	29,704554  	31,644587  	33,670522  	42,905836  	40,552567  	44,823559  	67,589717  	23,813979  	22,464912  	22,592056  	72,448312  	0,062957  	0,031901  	-3734,092526  	35500,946048  	-0,021692  	-0,049987  	0,308564  	0,156351  	-4,064102  	9726,768510  	7300,220123  	1,058807  	-0,047941  
54,550000  	14,105785  	42,074993  	357,499067  	1256,670793  	79,906519  	73,697372  	0,004300  	0,008525  	0,003964  	0,004064  	0,004352  	0,000000  	-0,000000  	22,503850  	18,415366  	20,016189  	23,162849  	32,193274  	29,707230  	31,650559  	33,678067  	42,909398  	40,556136  	44,823809  	67,586955  	23,817780  	22,486917  	22,586542  	72,443188  	0,058846  	0,029818  	-3489,764748  	16230,311503  	-0,015675  	-0,049997  	0,305065  	0,154579  	-4,023765  	9733,399403  	7383,308008  	1,070858  	-0,047949  
55,552000  	14,106796  	42,075549  	1256,818530  	1256,670793  	79,909799  	73,696718  	0,004292  	0,008520  	0,003963  	0,004050  	0,004356  	0,000000  	-0,000000  	22,502902  	18,407892  	20,012011  	23,170632  	32,187694  	29,690461  	31,641972  	33,667764  	42,898808  	40,552009  	44,821788  	67,586892  	23,817780  	22,511070  	22,589768  	72,431704  	0,047436  	0,024036  	-2813,060407  	-1,993445  	-0,011068  	-0,049997  	0,307931  	0,156031  	-4,064136  	9722,133323  	7219,836636  	1,047149  	-0,047949  
56,551000  	14,106551  	42,077216  	57,725912  	1256,670793  	79,906050  	73,695346  	0,004297  	0,008536  	0,003961  	0,004076  	0,004303  	-0,000001  	-0,000001  	22,491450  	18,406254  	20,020285  	23,170381  	32,191313  	29,700947  	31,650917  	33,678790  	42,896747  	40,544505  	44,822838  	67,588109  	23,829582  	22,522073  	22,591117  	72,429572  	0,068298  	0,034607  	-4050,514549  	24494,120824  	-0,018203  	-0,050007  	0,266398  	0,134986  	-3,514636  	9757,640045  	7320,132406  	1,061695  	-0,047957  
57,548000  	14,110195  	42,078204  	-242,047242  	1256,670793  	79,902301  	73,694597  	0,004295  	0,008532  	0,003965  	0,004029  	0,004341  	-0,000000  	-0,000000  	22,499249  	18,412577  	20,026951  	23,175726  	32,200764  	29,705305  	31,654386  	33,685263  	42,913595  	40,548536  	44,828941  	67,595834  	23,830261  	22,529937  	22,601588  	72,439038  	0,030293  	0,015349  	-1796,378956  	35509,038209  	-0,021697  	-0,050000  	0,296432  	0,150204  	-3,908984  	9749,180404  	7289,699093  	1,057281  	-0,047951  
58,550000  	14,113319  	42,076907  	-242,047242  	657,183579  	79,902801  	73,690606  	0,004299  	0,008532  	0,003962  	0,004081  	0,004389  	0,000001  	-0,000000  	22,509389  	18,410133  	20,023150  	23,167129  	32,206645  	29,704759  	31,664000  	33,678471  	42,911360  	40,553827  	44,826258  	67,595475  	23,842452  	22,529715  	22,600774  	72,438536  	0,072226  	0,036597  	-4282,386700  	32733,389584  	-0,035214  	-0,049982  	0,334470  	0,169478  	-4,413768  	9749,115319  	7375,554927  	1,069734  	-0,047936  
59,553000  	14,117087  	42,077371  	657,272221  	657,183579  	79,903051  	73,685430  	0,004290  	0,008525  	0,003963  	0,004048  	0,004293  	-0,000000  	-0,000000  	22,507287  	18,413471  	20,020494  	23,166966  	32,199647  	29,695966  	31,647512  	33,682418  	42,909095  	40,549520  	44,829178  	67,592387  	23,850194  	22,524862  	22,597706  	72,449431  	0,045555  	0,023083  	-2700,722309  	-1,810854  	-0,018202  	-0,050006  	0,258435  	0,130951  	-3,413370  	9733,920791  	7178,515118  	1,041156  	-0,047956  
60,549000  	14,114146  	42,078112  	57,725912  	57,696365  	79,902114  	73,692913  	0,004298  	0,008522  	0,003963  	0,004056  	0,004359  	0,000001  	-0,000001  	22,498151  	18,405639  	20,025141  	23,170935  	32,192752  	29,693448  	31,632347  	33,676795  	42,892898  	40,537766  	44,821977  	67,590966  	23,845736  	22,501036  	22,595851  	72,435713  	0,051791  	0,026243  	-3070,810237  	-1,524792  	-0,051172  	-0,049991  	0,310668  	0,157418  	-4,097699  	9727,657062  	7344,500239  	1,065230  	-0,047944  
61,552000  	14,111665  	42,076568  	1256,818530  	956,927186  	79,897677  	73,688922  	0,004292  	0,008523  	0,003963  	0,004044  	0,004385  	0,000000  	-0,000000  	22,501022  	18,414941  	20,035728  	23,170884  	32,200967  	29,708288  	31,653476  	33,687204  	42,909176  	40,548174  	44,828383  	67,594216  	23,850944  	22,487266  	22,609858  	72,431836  	0,042498  	0,021534  	-2519,882079  	-4420,290778  	-0,012269  	-0,049996  	0,331344  	0,167895  	-4,370102  	9729,665502  	7220,938167  	1,047309  	-0,047948  
62,567000  	14,115463  	42,072676  	1256,818530  	357,439972  	79,895803  	73,687301  	0,004298  	0,008537  	0,003961  	0,004041  	0,004370  	0,000001  	-0,000000  	22,501391  	18,417390  	20,025394  	23,168785  	32,196686  	29,700204  	31,658317  	33,674584  	42,907986  	40,555785  	44,828611  	67,588566  	23,859083  	22,464196  	22,600845  	72,430200  	0,039589  	0,020060  	-2346,769292  	-16231,083256  	-0,015672  	-0,049989  	0,319480  	0,161883  	-4,213444  	9759,701543  	7347,317615  	1,065638  	-0,047942  
63,548000  	14,121712  	42,072491  	357,499067  	1256,670793  	79,895897  	73,689702  	0,004296  	0,008523  	0,003960  	0,004054  	0,004370  	0,000000  	-0,000000  	22,499743  	18,409501  	20,019036  	23,170235  	32,194192  	29,700826  	31,654619  	33,668689  	42,903201  	40,551973  	44,826985  	67,587685  	23,869007  	22,444921  	22,599852  	72,433616  	0,050668  	0,025674  	-3002,835782  	16229,782579  	-0,015674  	-0,049996  	0,319053  	0,161667  	-4,206260  	9730,181230  	7312,421692  	1,060577  	-0,047948  
64,548000  	14,121099  	42,071565  	957,045375  	1256,670793  	79,897271  	73,682592  	0,004294  	0,008517  	0,003964  	0,004049  	0,004388  	0,000001  	-0,000000  	22,500611  	18,407049  	20,020955  	23,174718  	32,191765  	29,698804  	31,649850  	33,674007  	42,903647  	40,547054  	44,826060  	67,590013  	23,866199  	22,421375  	22,602070  	72,435816  	0,046617  	0,023621  	-2762,705684  	4416,222676  	-0,012269  	-0,049993  	0,333638  	0,169057  	-4,404550  	9717,488232  	7254,337138  	1,052153  	-0,047946  
65,551000  	14,123335  	42,070545  	957,045375  	57,696365  	79,896678  	73,689109  	0,004299  	0,008527  	0,003962  	0,004102  	0,004382  	0,000001  	-0,000000  	22,498289  	18,412264  	20,023804  	23,171959  	32,193253  	29,694578  	31,649345  	33,673407  	42,901228  	40,547294  	44,825298  	67,591705  	23,864868  	22,393566  	22,597908  	72,437472  	0,088990  	0,045092  	-5273,271506  	-21302,273437  	-0,021690  	-0,049988  	0,328573  	0,166490  	-4,332723  	9738,702419  	7372,942323  	1,069355  	-0,047941  
66,548000  	14,126704  	42,068384  	357,499067  	1256,670793  	79,895553  	73,694472  	0,004293  	0,008534  	0,003963  	0,004090  	0,004344  	0,000000  	-0,000001  	22,500125  	18,411322  	20,025640  	23,171239  	32,201006  	29,699819  	31,655016  	33,680051  	42,904659  	40,553243  	44,827414  	67,594656  	23,874893  	22,373308  	22,601288  	72,441173  	0,079918  	0,040495  	-4734,732428  	16230,261582  	-0,015675  	-0,049997  	0,298551  	0,151278  	-3,932727  	9753,239730  	7243,547788  	1,050588  	-0,047949  
67,548000  	14,129736  	42,069403  	1256,818530  	357,439972  	79,890429  	73,683029  	0,004296  	0,008518  	0,003963  	0,004048  	0,004400  	0,000001  	-0,000000  	22,501775  	18,408339  	20,023179  	23,173147  	32,201396  	29,702533  	31,654489  	33,680431  	42,906533  	40,553774  	44,824187  	67,592318  	23,887084  	22,355977  	22,602702  	72,439391  	0,045491  	0,023051  	-2694,933645  	-16229,036097  	-0,015670  	-0,049982  	0,343115  	0,173859  	-4,524348  	9718,082486  	7308,036753  	1,059941  	-0,047936  
68,550000  	14,130716  	42,069403  	1256,818530  	956,927186  	79,890554  	73,683777  	0,004294  	0,008519  	0,003963  	0,004111  	0,004372  	0,000001  	-0,000000  	22,499146  	18,415350  	20,028355  	23,171119  	32,199513  	29,704091  	31,650543  	33,673957  	42,903525  	40,553252  	44,824030  	67,591213  	23,892502  	22,346328  	22,605204  	72,438663  	0,096227  	0,048759  	-5700,372931  	-4419,901988  	-0,012268  	-0,049991  	0,321111  	0,162709  	-4,233779  	9720,985138  	7265,684315  	1,053798  	-0,047943  
69,548000  	14,132738  	42,068445  	1256,818530  	57,696365  	79,893647  	73,679162  	0,004299  	0,008525  	0,003962  	0,004088  	0,004318  	-0,000000  	-0,000000  	22,505833  	18,421643  	20,036641  	23,173892  	32,203115  	29,708089  	31,658026  	33,684609  	42,909734  	40,560374  	44,833909  	67,595710  	23,897056  	22,346282  	22,613536  	72,442942  	0,078224  	0,039637  	-4633,395338  	-24495,165959  	-0,018201  	-0,050004  	0,277952  	0,140840  	-3,669291  	9733,375350  	7377,786233  	1,070057  	-0,047955  
70,548000  	14,140027  	42,068507  	657,272221  	1256,670793  	79,894460  	73,687020  	0,004292  	0,008522  	0,003960  	0,004073  	0,004376  	-0,000000  	-0,000000  	22,511699  	18,420626  	20,028220  	23,177915  	32,200727  	29,705612  	31,666703  	33,687568  	42,917025  	40,560840  	44,834246  	67,592747  	23,913727  	22,344998  	22,608702  	72,441771  	0,065809  	0,033346  	-3897,037191  	9723,019779  	-0,013766  	-0,050003  	0,323913  	0,164129  	-4,271177  	9726,307963  	7224,828829  	1,047873  	-0,047954  
71,548000  	14,152248  	42,070638  	-242,047242  	1256,670793  	79,901520  	73,680441  	0,004294  	0,008529  	0,003965  	0,004056  	0,004335  	0,000001  	-0,000000  	22,510734  	18,420761  	20,026462  	23,182270  	32,198557  	29,703808  	31,658558  	33,682528  	42,918134  	40,561343  	44,835797  	67,592973  	23,922346  	22,354951  	22,612495  	72,448325  	0,052159  	0,026430  	-3087,604667  	35504,487669  	-0,021694  	-0,049993  	0,291716  	0,147814  	-3,855070  	9743,026330  	7264,829923  	1,053674  	-0,047945  
72,548000  	14,159232  	42,073479  	-242,047242  	1256,670793  	79,910580  	73,682000  	0,004299  	0,008541  	0,003966  	0,004065  	0,004360  	0,000002  	-0,000000  	22,508139  	18,419606  	20,030453  	23,182369  	32,203219  	29,708450  	31,655930  	33,681693  	42,915237  	40,557511  	44,835656  	67,593371  	23,927300  	22,366738  	22,614681  	72,458927  	0,059621  	0,030211  	-3528,785023  	35496,535924  	-0,021689  	-0,049980  	0,311280  	0,157728  	-4,118579  	9768,497928  	7364,490194  	1,068129  	-0,047935  
73,550000  	14,159997  	42,072028  	-242,047242  	57,696365  	79,913954  	73,688392  	0,004294  	0,008519  	0,003964  	0,004090  	0,004360  	0,000001  	-0,000001  	22,489066  	18,404076  	20,021853  	23,176324  	32,188776  	29,692517  	31,649443  	33,678288  	42,907140  	40,544370  	44,819224  	67,584268  	23,915356  	22,365560  	22,601271  	72,440450  	0,079776  	0,040423  	-4721,277478  	27696,112879  	-0,093557  	-0,049993  	0,311727  	0,157954  	-4,122499  	9720,966744  	7262,139646  	1,053284  	-0,047946  
74,548000  	14,160794  	42,070607  	357,499067  	1256,670793  	79,910268  	73,685586  	0,004297  	0,008526  	0,003961  	0,004039  	0,004328  	-0,000000  	-0,000000  	22,497517  	18,407694  	20,011352  	23,167072  	32,187702  	29,689117  	31,649973  	33,670554  	42,904443  	40,542649  	44,822055  	67,579005  	23,915064  	22,360644  	22,600425  	72,437876  	0,038105  	0,019308  	-2254,938404  	16231,542886  	-0,015676  	-0,050002  	0,286251  	0,145046  	-3,785054  	9735,791278  	7321,678785  	1,061920  	-0,047953  
75,551000  	14,159599  	42,071626  	1256,818530  	1256,670793  	79,906487  	73,695533  	0,004294  	0,008514  	0,003962  	0,004040  	0,004340  	0,000001  	-0,000000  	22,507190  	18,412139  	20,021976  	23,171818  	32,197713  	29,691644  	31,649827  	33,674704  	42,906871  	40,541590  	44,821983  	67,593820  	23,926627  	22,378244  	22,608839  	72,441591  	0,038892  	0,019707  	-2301,721574  	-1,993156  	-0,011066  	-0,049989  	0,295401  	0,149682  	-3,897430  	9709,346941  	7270,542347  	1,054503  	-0,047942  
76,548000  	14,156169  	42,073109  	57,725912  	1256,670793  	79,908924  	73,702829  	0,004298  	0,008542  	0,003965  	0,004035  	0,004365  	0,000001  	-0,000000  	22,503909  	18,407919  	20,027054  	23,178804  	32,186551  	29,695109  	31,644466  	33,672671  	42,904365  	40,551502  	44,823678  	67,593830  	23,930571  	22,398969  	22,603911  	72,437214  	0,034861  	0,017664  	-2063,515240  	24486,068129  	-0,018197  	-0,049989  	0,315576  	0,159905  	-4,160358  	9769,498257  	7337,523879  	1,064218  	-0,047942  
77,552000  	14,156383  	42,074190  	1256,818530  	57,696365  	79,906113  	73,697061  	0,004294  	0,008532  	0,003964  	0,004028  	0,004373  	0,000000  	-0,000000  	22,501364  	18,411220  	20,029769  	23,173222  	32,191280  	29,700398  	31,643748  	33,675828  	42,915202  	40,549137  	44,819923  	67,584977  	23,936082  	22,417748  	22,610880  	72,440792  	0,029632  	0,015015  	-1754,048155  	-24492,610017  	-0,018199  	-0,049998  	0,321780  	0,163048  	-4,244161  	9749,338164  	7257,832379  	1,052660  	-0,047950  
78,548000  	14,160426  	42,071472  	657,272221  	1256,670793  	79,898927  	73,694067  	0,004296  	0,008527  	0,003963  	0,004085  	0,004329  	0,000000  	-0,000000  	22,506379  	18,418479  	20,029726  	23,173179  	32,199815  	29,710449  	31,661703  	33,687207  	42,916032  	40,558917  	44,823337  	67,598455  	23,944437  	22,438100  	22,633669  	72,441156  	0,075449  	0,038231  	-4465,065022  	9722,030838  	-0,013765  	-0,049997  	0,286501  	0,145172  	-3,776296  	9737,767175  	7302,677383  	1,059164  	-0,047949  
79,552000  	14,160059  	42,069712  	657,272221  	357,439972  	79,900520  	73,695969  	0,004293  	0,008525  	0,003964  	0,004036  	0,004381  	0,000002  	-0,000001  	22,512899  	18,412727  	20,012351  	23,158162  	32,186298  	29,696488  	31,637453  	33,662957  	42,901056  	40,546413  	44,816733  	67,580731  	23,932396  	22,451242  	22,607745  	72,436870  	0,035932  	0,018207  	-2126,319614  	-7100,658636  	-0,021687  	-0,049977  	0,327823  	0,166110  	-4,320734  	9732,812930  	7248,794180  	1,051349  	-0,047932  
80,548000  	14,157731  	42,071750  	1256,818530  	-242,047242  	79,896272  	73,692165  	0,004295  	0,008539  	0,003964  	0,004085  	0,004373  	0,000001  	-0,000000  	22,510013  	18,432324  	20,040163  	23,185232  	32,190268  	29,704204  	31,654176  	33,687566  	42,917404  	40,569341  	44,836948  	67,605441  	23,948343  	22,474978  	22,634362  	72,452327  	0,075222  	0,038116  	-4452,129142  	-35504,986352  	-0,021692  	-0,049993  	0,321316  	0,162813  	-4,234664  	9765,001729  	7281,345820  	1,056070  	-0,047945  
81,551000  	14,158129  	42,075950  	1256,818530  	57,696365  	79,892179  	73,689951  	0,004300  	0,008510  	0,003964  	0,004055  	0,004361  	0,000001  	-0,000000  	22,504724  	18,421978  	20,036077  	23,181767  	32,206535  	29,710799  	31,656918  	33,684044  	42,913575  	40,556155  	44,830873  	67,597161  	23,936223  	22,483796  	22,629051  	72,447579  	0,051152  	0,025919  	-3027,888546  	-24490,649565  	-0,018198  	-0,049994  	0,311858  	0,158021  	-4,108767  	9702,359496  	7387,671763  	1,071491  	-0,047946  
82,549000  	14,161498  	42,076506  	1256,818530  	1256,670793  	79,886993  	73,690949  	0,004291  	0,008517  	0,003962  	0,004112  	0,004356  	-0,000000  	-0,000000  	22,506515  	18,420602  	20,025907  	23,178390  	32,199136  	29,702859  	31,659720  	33,684525  	42,912055  	40,555797  	44,826493  	67,599515  	23,931464  	22,487946  	22,627893  	72,450074  	0,097625  	0,049467  	-5778,250035  	-1,993769  	-0,011069  	-0,050006  	0,308462  	0,156300  	-4,059982  	9715,536388  	7195,715942  	1,043650  	-0,047956  
83,547000  	14,164071  	42,076135  	1256,818530  	1256,670793  	79,890898  	73,689639  	0,004299  	0,008514  	0,003963  	0,004087  	0,004355  	0,000001  	-0,000000  	22,500965  	18,418958  	20,013734  	23,178422  	32,192981  	29,693957  	31,651962  	33,672970  	42,904516  	40,547752  	44,822801  	67,586084  	23,918613  	22,499158  	22,618550  	72,443016  	0,076887  	0,038959  	-4550,352274  	-1,993289  	-0,011067  	-0,049992  	0,307255  	0,155689  	-4,047498  	9710,865121  	7359,279107  	1,067373  	-0,047945  
84,551000  	14,170135  	42,078791  	1256,818530  	1256,670793  	79,894397  	73,682343  	0,004296  	0,008524  	0,003962  	0,004083  	0,004361  	0,000002  	-0,000000  	22,504935  	18,418190  	20,025357  	23,175337  	32,198426  	29,702493  	31,655458  	33,682984  	42,908348  	40,548172  	44,834738  	67,589929  	23,908540  	22,510673  	22,624220  	72,443421  	0,073876  	0,037434  	-4371,606643  	-1,992861  	-0,011064  	-0,049980  	0,311916  	0,158050  	-4,116036  	9731,431288  	7297,784045  	1,058454  	-0,047935  
85,549000  	14,178834  	42,083887  	957,045375  	956,927186  	79,891367  	73,676512  	0,004297  	0,008536  	0,003963  	0,004085  	0,004359  	0,000001  	-0,000000  	22,507218  	18,414682  	20,032960  	23,176081  	32,199980  	29,707746  	31,658767  	33,684086  	42,902027  	40,551732  	44,824330  	67,585822  	23,908776  	22,516790  	22,626139  	72,438834  	0,075124  	0,038066  	-4444,840229  	-1,916823  	-0,013764  	-0,049992  	0,310588  	0,157377  	-4,100364  	9757,292689  	7334,240470  	1,063742  	-0,047945  
86,552000  	14,183367  	42,084319  	357,499067  	-242,047242  	79,889742  	73,691354  	0,004293  	0,008516  	0,003960  	0,004094  	0,004370  	-0,000001  	-0,000000  	22,500481  	18,408033  	20,017467  	23,168116  	32,183009  	29,697803  	31,646641  	33,671807  	42,901610  	40,541603  	44,811817  	67,576033  	23,896743  	22,524217  	22,619918  	72,425078  	0,082423  	0,041764  	-4876,010913  	-30949,431545  	-0,051188  	-0,050012  	0,319627  	0,161957  	-4,208522  	9715,115457  	7242,997022  	1,050508  	-0,047961  
87,548000  	14,184745  	42,085061  	357,499067  	657,183579  	79,892398  	73,688080  	0,004295  	0,008519  	0,003965  	0,004071  	0,004348  	0,000001  	-0,000000  	22,507828  	18,416936  	20,018317  	23,173769  	32,187616  	29,697688  	31,651211  	33,666633  	42,914251  	40,550103  	44,817711  	67,585272  	23,890236  	22,530268  	22,624886  	72,433442  	0,064168  	0,032514  	-3795,988559  	7099,323890  	-0,021693  	-0,049993  	0,301791  	0,152920  	-3,977477  	9721,674898  	7278,676727  	1,055683  	-0,047946  
88,549000  	14,181621  	42,086975  	957,045375  	1256,670793  	79,895209  	73,678726  	0,004293  	0,008518  	0,003964  	0,004062  	0,004362  	0,000000  	-0,000000  	22,506741  	18,419854  	20,021816  	23,172231  	32,190710  	29,703956  	31,652994  	33,672651  	42,909400  	40,546407  	44,818824  	67,587088  	23,876520  	22,530368  	22,626762  	72,430889  	0,057218  	0,028993  	-3385,467980  	4416,352374  	-0,012269  	-0,049995  	0,312633  	0,158413  	-4,128439  	9717,759183  	7249,422617  	1,051440  	-0,047947  
89,548000  	14,178344  	42,089075  	57,725912  	-242,047242  	79,895990  	73,684307  	0,004295  	0,008533  	0,003964  	0,004086  	0,004354  	0,000002  	-0,000000  	22,505165  	18,421251  	20,026270  	23,170795  	32,198138  	29,702446  	31,659215  	33,680728  	42,910740  	40,550478  	44,817743  	67,583923  	23,880599  	22,525880  	22,635034  	72,436077  	0,076426  	0,038725  	-4522,801352  	-27690,335973  	-0,093528  	-0,049981  	0,307000  	0,155559  	-4,050925  	9750,584684  	7285,497743  	1,056672  	-0,047935  
90,549000  	14,179079  	42,087408  	1256,818530  	357,439972  	79,889680  	73,676949  	0,004299  	0,008533  	0,003962  	0,004058  	0,004344  	-0,000000  	-0,000000  	22,515326  	18,421835  	20,033707  	23,175033  	32,203073  	29,706845  	31,662415  	33,685089  	42,913577  	40,560214  	44,816966  	67,584715  	23,892220  	22,514066  	22,639364  	72,438193  	0,053883  	0,027303  	-3188,449902  	-16234,679456  	-0,015675  	-0,050002  	0,298399  	0,151201  	-3,938096  	9751,258881  	7364,108895  	1,068074  	-0,047953  
91,547000  	14,183490  	42,083331  	1256,818530  	1256,670793  	79,889680  	73,681501  	0,004291  	0,008515  	0,003962  	0,004061  	0,004354  	-0,000000  	-0,000000  	22,517812  	18,424348  	20,031262  	23,184812  	32,203075  	29,707083  	31,657499  	33,686921  	42,915748  	40,562689  	44,819258  	67,592776  	23,896680  	22,502904  	22,634565  	72,435937  	0,055829  	0,028289  	-3302,617189  	-1,993701  	-0,011069  	-0,050004  	0,306424  	0,155267  	-4,041044  	9711,713349  	7189,022025  	1,042679  	-0,047955  
92,551000  	14,185817  	42,082281  	1256,818530  	1256,670793  	79,891617  	73,683621  	0,004299  	0,008522  	0,003964  	0,004080  	0,004352  	0,000001  	-0,000000  	22,510683  	18,427215  	20,027399  	23,187502  	32,204643  	29,704409  	31,652850  	33,685961  	42,914034  	40,556606  	44,820351  	67,593748  	23,892364  	22,494032  	22,629799  	72,432935  	0,071653  	0,036307  	-4238,173757  	-1,993143  	-0,011066  	-0,049988  	0,305123  	0,154608  	-4,023771  	9728,366631  	7364,320728  	1,068104  	-0,047941  
93,549000  	14,183398  	42,083208  	957,045375  	956,927186  	79,887149  	73,690388  	0,004296  	0,008529  	0,003963  	0,004023  	0,004378  	0,000001  	-0,000000  	22,509237  	18,423129  	20,033433  	23,180766  	32,203040  	29,704020  	31,651637  	33,683720  	42,910831  	40,550368  	44,816543  	67,588703  	23,893580  	22,488352  	22,630342  	72,430551  	0,025129  	0,012733  	-1486,518471  	-1,916569  	-0,013762  	-0,049985  	0,325894  	0,165133  	-4,289921  	9742,675437  	7310,995351  	1,060370  	-0,047939  
94,550000  	14,182111  	42,085678  	357,499067  	357,439972  	79,888649  	73,686085  	0,004300  	0,008522  	0,003961  	0,004057  	0,004339  	0,000000  	-0,000000  	22,514539  	18,420544  	20,034753  	23,180364  	32,199562  	29,699587  	31,654162  	33,680778  	42,914283  	40,554483  	44,813747  	67,588125  	23,907096  	22,487404  	22,636828  	72,431549  	0,052596  	0,026651  	-3111,764133  	-1,685208  	-0,026851  	-0,049999  	0,294876  	0,149416  	-3,885235  	9726,527271  	7379,558567  	1,070314  	-0,047950  
95,548000  	14,181376  	42,084566  	1256,818530  	357,439972  	79,888836  	73,680846  	0,004293  	0,008535  	0,003961  	0,004016  	0,004354  	0,000000  	-0,000000  	22,519218  	18,424794  	20,026779  	23,185830  	32,200474  	29,705035  	31,655198  	33,682786  	42,917801  	40,559917  	44,815494  	67,588159  	23,912700  	22,488104  	22,642604  	72,430025  	0,019964  	0,010116  	-1181,118957  	-16233,305173  	-0,015674  	-0,049997  	0,306303  	0,155206  	-4,039331  	9755,494361  	7242,488624  	1,050434  	-0,047949  
96,548000  	14,182785  	42,082219  	57,725912  	-242,047242  	79,889398  	73,683091  	0,004296  	0,008542  	0,003961  	0,004064  	0,004360  	0,000000  	-0,000000  	22,519441  	18,430214  	20,032474  	23,192840  	32,207645  	29,717307  	31,659820  	33,695585  	42,924468  	40,560195  	44,824509  	67,597786  	23,914647  	22,498191  	22,647217  	72,435206  	0,058880  	0,029835  	-3483,054181  	-27698,541049  	-0,093556  	-0,049997  	0,311615  	0,157898  	-4,108266  	9770,806325  	7311,863865  	1,060496  	-0,047949  
97,550000  	14,187043  	42,084103  	-242,047242  	1256,670793  	79,896084  	73,678040  	0,004293  	0,008538  	0,003965  	0,004069  	0,004372  	0,000000  	-0,000000  	22,518187  	18,433817  	20,047963  	23,196051  	32,213789  	29,716778  	31,675235  	33,698764  	42,927158  	40,559426  	44,825138  	67,601489  	23,923997  	22,501663  	22,653267  	72,439292  	0,062547  	0,031693  	-3699,684051  	35506,222075  	-0,021695  	-0,049996  	0,320585  	0,162443  	-4,234519  	9762,872316  	7232,285344  	1,048954  	-0,047948  
98,549000  	14,187961  	42,087933  	357,499067  	1256,670793  	79,893710  	73,682717  	0,004297  	0,008535  	0,003963  	0,004061  	0,004389  	0,000001  	-0,000001  	22,513684  	18,423398  	20,037236  	23,182859  	32,199608  	29,712856  	31,667030  	33,691740  	42,923731  	40,552718  	44,805585  	67,583560  	23,929671  	22,477217  	22,646854  	72,432653  	0,055862  	0,028306  	-3304,595348  	16228,043667  	-0,015673  	-0,049990  	0,334468  	0,169477  	-4,412884  	9754,434606  	7320,520766  	1,061752  	-0,047943  
99,552000  	14,186124  	42,092380  	1256,818530  	1256,670793  	79,888524  	73,682561  	0,004299  	0,008534  	0,003962  	0,004065  	0,004352  	-0,000000  	-0,000001  	22,514588  	18,423701  	20,033943  	23,185240  	32,198899  	29,709372  	31,655310  	33,692332  	42,920026  	40,555599  	44,813201  	67,584540  	23,934015  	22,468353  	22,643344  	72,429220  	0,059371  	0,030084  	-3512,955125  	-1,993778  	-0,011070  	-0,050006  	0,305078  	0,154585  	-4,021857  	9752,692874  	7371,939647  	1,069209  	-0,047957  
100,549000  	14,183000  	42,095715  	1256,818530  	57,696365  	79,886712  	73,683808  	0,004289  	0,008538  	0,003962  	0,004085  	0,004344  	-0,000000  	-0,000000  	22,510101  	18,425843  	20,043395  	23,196736  	32,211288  	29,713991  	31,662304  	33,691307  	42,927068  	40,558581  	44,813063  	67,583007  	23,933136  	22,458410  	22,644055  	72,427723  	0,075118  	0,038063  	-4445,728386  	-24494,193804  	-0,018201  	-0,050002  	0,298782  	0,151395  	-3,936916  	9761,035786  	7155,566565  	1,037827  	-0,047953  
101,551000  	14,178252  	42,098804  	957,045375  	-242,047242  	79,888243  	73,687519  	0,004297  	0,008546  	0,003963  	0,004071  	0,004371  	0,000002  	-0,000000  	22,515838  	18,440312  	20,051631  	23,195634  	32,209124  	29,720185  	31,667387  	33,692989  	42,926014  	40,561971  	44,809196  	67,587729  	23,941495  	22,450579  	22,643271  	72,428280  	0,064541  	0,032703  	-3820,811345  	-34178,429535  	-0,026839  	-0,049975  	0,320417  	0,162357  	-4,220506  	9778,421983  	7324,686811  	1,062356  	-0,047930  
102,548000  	14,181989  	42,096518  	-242,047242  	357,439972  	79,888118  	73,679786  	0,004293  	0,008537  	0,003964  	0,004043  	0,004355  	0,000001  	-0,000000  	22,523711  	18,434907  	20,049367  	23,189642  	32,219585  	29,728300  	31,673396  	33,697945  	42,923106  	40,565951  	44,813918  	67,591321  	23,944423  	22,432926  	22,659257  	72,427609  	0,041254  	0,020904  	-2441,698723  	30938,925146  	-0,051176  	-0,049993  	0,307068  	0,155594  	-4,049641  	9759,233921  	7243,823170  	1,050628  	-0,047946  
103,549000  	14,186767  	42,094758  	657,272221  	357,439972  	79,885774  	73,673269  	0,004299  	0,008524  	0,003965  	0,004041  	0,004370  	-0,000000  	-0,000000  	22,515145  	18,426097  	20,022804  	23,184731  	32,202290  	29,714188  	31,647611  	33,682092  	42,917929  	40,554989  	44,805388  	67,579433  	23,939461  	22,409851  	22,643037  	72,416499  	0,039877  	0,020206  	-2359,627629  	-7103,830757  	-0,021696  	-0,050002  	0,319645  	0,161967  	-4,218335  	9731,132038  	7359,455634  	1,067399  	-0,047953  
104,549000  	14,191606  	42,092781  	1256,818530  	-242,047242  	79,883838  	73,672583  	0,004291  	0,008538  	0,003961  	0,004101  	0,004332  	-0,000001  	-0,000000  	22,528783  	18,444905  	20,058768  	23,197752  	32,230596  	29,735231  	31,686439  	33,703990  	42,927232  	40,566275  	44,830465  	67,600350  	23,957703  	22,396823  	22,661744  	72,436113  	0,088626  	0,044907  	-5242,993866  	-35519,896786  	-0,021701  	-0,050016  	0,289352  	0,146617  	-3,817789  	9761,884014  	7194,211929  	1,043432  	-0,047965  
105,551000  	14,192770  	42,093461  	57,725912  	956,927186  	79,887555  	73,675639  	0,004297  	0,008526  	0,003961  	0,004047  	0,004326  	0,000001  	-0,000000  	22,519782  	18,430769  	20,038868  	23,186917  	32,214354  	29,721237  	31,657802  	33,694176  	42,922036  	40,557431  	44,804173  	67,581753  	23,940145  	22,371379  	22,646708  	72,424913  	0,044660  	0,022629  	-2641,959978  	21299,728858  	-0,021691  	-0,049988  	0,284789  	0,144305  	-3,757984  	9736,165517  	7326,353229  	1,062598  	-0,047941  
106,557000  	14,192096  	42,096549  	1256,818530  	357,439972  	79,891866  	73,679942  	0,004294  	0,008543  	0,003964  	0,004074  	0,004367  	0,000002  	-0,000000  	22,526895  	18,434789  	20,038857  	23,189346  	32,210824  	29,718162  	31,661553  	33,691310  	42,919411  	40,561130  	44,807590  	67,580615  	23,943183  	22,351560  	22,649306  	72,422702  	0,066811  	0,033854  	-3952,920961  	-16227,245725  	-0,015668  	-0,049976  	0,316588  	0,160417  	-4,177601  	9772,662664  	7252,303543  	1,051858  	-0,047931  
107,547000  	14,193475  	42,101367  	357,499067  	1256,670793  	79,892366  	73,676699  	0,004295  	0,008518  	0,003963  	0,004057  	0,004336  	0,000000  	-0,000000  	22,528117  	18,448050  	20,050465  	23,194860  	32,231641  	29,725503  	31,682239  	33,712336  	42,925035  	40,570794  	44,822678  	67,588130  	23,959391  	22,344504  	22,665088  	72,446225  	0,052492  	0,026598  	-3106,095376  	16229,754053  	-0,015674  	-0,049996  	0,292664  	0,148295  	-3,864233  	9717,846199  	7280,201923  	1,055904  	-0,047948  
108,548000  	14,190657  	42,104703  	-242,047242  	1256,670793  	79,893491  	73,678757  	0,004301  	0,008536  	0,003963  	0,004047  	0,004378  	0,000000  	-0,000000  	22,516512  	18,442974  	20,053911  	23,201216  	32,217930  	29,726467  	31,677077  	33,708729  	42,923926  	40,559607  	44,817270  	67,594375  	23,934245  	22,328571  	22,658387  	72,437714  	0,044339  	0,022467  	-2624,277326  	35506,666728  	-0,021695  	-0,049996  	0,325551  	0,164959  	-4,297825  	9757,004758  	7412,124329  	1,075038  	-0,047948  
109,551000  	14,185389  	42,103900  	1256,818530  	57,696365  	79,892054  	73,681751  	0,004292  	0,008523  	0,003962  	0,004106  	0,004356  	0,000000  	-0,000000  	22,524726  	18,433457  	20,047745  	23,196897  	32,217084  	29,726607  	31,673339  	33,700416  	42,924776  	40,555602  	44,809362  	67,588977  	23,919426  	22,324190  	22,656560  	72,435757  	0,092186  	0,046711  	-5456,980788  	-24491,176896  	-0,018198  	-0,049995  	0,308187  	0,156160  	-4,065684  	9730,019933  	7222,555157  	1,047543  	-0,047947  
110,548000  	14,185940  	42,100564  	1256,818530  	1256,670793  	79,890429  	73,681002  	0,004298  	0,008525  	0,003961  	0,004027  	0,004390  	-0,000000  	-0,000000  	22,519641  	18,434850  	20,039410  	23,199748  	32,215256  	29,721189  	31,672881  	33,703130  	42,928557  	40,564920  	44,807975  	67,589183  	23,913728  	22,320740  	22,646010  	72,435068  	0,028489  	0,014435  	-1686,162635  	-1,993664  	-0,011069  	-0,050003  	0,335168  	0,169832  	-4,421001  	9734,719497  	7355,459056  	1,066819  	-0,047954  
111,548000  	14,188788  	42,100101  	357,499067  	1256,670793  	79,893304  	73,686022  	0,004295  	0,008546  	0,003962  	0,004100  	0,004374  	0,000001  	-0,000000  	22,527401  	18,438971  	20,051862  	23,194173  	32,215400  	29,725076  	31,668207  	33,697527  	42,926829  	40,573720  	44,807697  	67,591479  	23,903969  	22,316378  	22,654381  	72,430577  	0,087482  	0,044328  	-5177,229255  	16229,195414  	-0,015674  	-0,049994  	0,322539  	0,163433  	-4,252962  	9779,849609  	7291,280778  	1,057511  	-0,047946  
112,548000  	14,188543  	42,100410  	957,045375  	57,696365  	79,893179  	73,683091  	0,004298  	0,008531  	0,003964  	0,004046  	0,004349  	0,000001  	-0,000000  	22,527105  	18,444075  	20,055237  	23,194656  	32,212690  	29,717508  	31,667914  	33,696467  	42,919516  	40,561209  	44,802795  	67,584107  	23,886117  	22,320309  	22,656424  	72,432663  	0,043861  	0,022225  	-2595,771336  	-21303,342236  	-0,021691  	-0,049991  	0,302318  	0,153187  	-3,988126  	9747,211581  	7342,120650  	1,064885  	-0,047944  
113,557000  	14,184715  	42,103992  	1256,818530  	956,927186  	79,895147  	73,683933  	0,004293  	0,008519  	0,003963  	0,004071  	0,004396  	0,000002  	-0,000000  	22,527688  	18,441208  	20,054757  	23,196857  	32,218519  	29,727327  	31,672251  	33,701026  	42,925744  	40,558918  	44,801020  	67,584297  	23,885232  	22,326312  	22,657859  	72,438366  	0,064335  	0,032599  	-3808,429561  	-4418,735942  	-0,012265  	-0,049976  	0,339641  	0,172099  	-4,481295  	9721,232744  	7249,126051  	1,051397  	-0,047931  
114,550000  	14,183612  	42,108254  	657,272221  	357,439972  	79,893460  	73,689483  	0,004298  	0,008538  	0,003962  	0,004099  	0,004365  	0,000000  	-0,000000  	22,535474  	18,439371  	20,055373  	23,202351  	32,221841  	29,734767  	31,671243  	33,709614  	42,930486  	40,564179  	44,812914  	67,593831  	23,894768  	22,333494  	22,659638  	72,437654  	0,086609  	0,043885  	-5127,999108  	-7103,176357  	-0,021694  	-0,049997  	0,315152  	0,159690  	-4,153342  	9761,089552  	7347,395287  	1,065650  	-0,047949  
115,551000  	14,188850  	42,110107  	657,272221  	357,439972  	79,888711  	73,691791  	0,004291  	0,008519  	0,003962  	0,004092  	0,004370  	-0,000000  	-0,000000  	22,532177  	18,442604  	20,053154  	23,205045  	32,221242  	29,728820  	31,674768  	33,704349  	42,926543  	40,564676  	44,817043  	67,592593  	23,880994  	22,338319  	22,666126  	72,436014  	0,080814  	0,040949  	-4784,288814  	-7104,154835  	-0,021697  	-0,050005  	0,319293  	0,161788  	-4,203128  	9721,626084  	7206,568842  	1,045224  	-0,047955  
116,549000  	14,194057  	42,112516  	57,725912  	956,927186  	79,888086  	73,701644  	0,004293  	0,008548  	0,003962  	0,004060  	0,004353  	-0,000000  	-0,000000  	22,520839  	18,431987  	20,045105  	23,194283  	32,211742  	29,717410  	31,666166  	33,694405  	42,921038  	40,553848  	44,798367  	67,582266  	23,859559  	22,335166  	22,656946  	72,424441  	0,055498  	0,028121  	-3285,236899  	21305,512181  	-0,021697  	-0,050003  	0,306193  	0,155150  	-4,023873  	9782,675149  	7229,863389  	1,048603  	-0,047954  
117,551000  	14,196476  	42,106617  	57,725912  	1256,670793  	79,889149  	73,697591  	0,004298  	0,008536  	0,003964  	0,004073  	0,004383  	0,000001  	-0,000000  	22,524174  	18,433311  	20,047998  	23,190948  	32,209884  	29,724617  	31,660249  	33,695862  	42,922301  	40,550339  	44,798174  	67,582236  	23,859695  	22,347185  	22,651950  	72,422334  	0,065385  	0,033131  	-3869,327818  	24483,672048  	-0,018196  	-0,049983  	0,329460  	0,166940  	-4,333221  	9756,594439  	7346,590322  	1,065533  	-0,047937  
118,548000  	14,191943  	42,102911  	1256,818530  	657,183579  	79,884837  	73,691666  	0,004293  	0,008528  	0,003964  	0,004101  	0,004397  	0,000002  	-0,000000  	22,533202  	18,448050  	20,058307  	23,200009  	32,215680  	29,735459  	31,669311  	33,702528  	42,928477  	40,563621  	44,810256  	67,593210  	23,869459  	22,367950  	22,665941  	72,429434  	0,088105  	0,044644  	-5214,017401  	-9721,132949  	-0,013758  	-0,049971  	0,340810  	0,172691  	-4,483665  	9740,767454  	7240,892817  	1,050203  	-0,047926  
119,548000  	14,187349  	42,105042  	1256,818530  	-242,047242  	79,880214  	73,666752  	0,004301  	0,008541  	0,003963  	0,004067  	0,004382  	0,000002  	-0,000000  	22,535086  	18,450970  	20,059770  	23,205247  	32,217181  	29,730818  	31,671243  	33,702472  	42,928829  	40,571231  	44,808442  	67,593362  	23,874575  	22,376651  	22,668963  	72,430624  	0,060984  	0,030901  	-3609,854126  	-35492,260216  	-0,021684  	-0,049973  	0,328658  	0,166534  	-4,337945  	9768,756146  	7402,168188  	1,073594  	-0,047928  
120,549000  	14,188329  	42,107328  	1256,818530  	-242,047242  	79,880026  	73,668374  	0,004293  	0,008539  	0,003965  	0,004048  	0,004338  	0,000000  	-0,000000  	22,537140  	18,449394  	20,058606  	23,207247  	32,217515  	29,726263  	31,670841  	33,703830  	42,925530  	40,566252  	44,805628  	67,584848  	23,874625  	22,381141  	22,662338  	72,431228  	0,045665  	0,023139  	-2703,222516  	-35506,151311  	-0,021692  	-0,049995  	0,294313  	0,149131  	-3,883500  	9762,885758  	7245,581382  	1,050883  	-0,047947  
121,551000  	14,188605  	42,106617  	957,045375  	956,927186  	79,887961  	73,663135  	0,004296  	0,008535  	0,003962  	0,004076  	0,004357  	0,000000  	-0,000001  	22,534836  	18,447443  	20,053587  	23,203850  	32,215878  	29,723258  	31,675983  	33,707740  	42,924235  	40,563727  	44,803983  	67,583383  	23,872007  	22,389228  	22,662962  	72,426515  	0,068262  	0,034589  	-4040,742512  	-1,916957  	-0,013765  	-0,049996  	0,309091  	0,156619  	-4,087143  	9754,405601  	7301,003904  	1,058921  	-0,047948  
122,546000  	14,185481  	42,107420  	357,499067  	357,439972  	79,894085  	73,671055  	0,004291  	0,008538  	0,003963  	0,004034  	0,004337  	0,000000  	-0,000000  	22,530133  	18,446584  	20,047880  	23,199268  	32,217566  	29,716382  	31,673447  	33,703203  	42,922930  	40,565766  	44,800944  	67,582385  	23,883538  	22,397816  	22,662228  	72,420076  	0,033860  	0,017157  	-2004,611130  	-1,685234  	-0,026852  	-0,050000  	0,292936  	0,148433  	-3,872405  	9761,816807  	7191,260392  	1,043004  	-0,047951  
123,553000  	14,184929  	42,104733  	357,499067  	357,439972  	79,900958  	73,681782  	0,004298  	0,008559  	0,003964  	0,004104  	0,004394  	0,000001  	-0,000000  	22,537176  	18,455442  	20,061227  	23,210295  	32,222452  	29,716819  	31,677688  	33,705576  	42,930366  	40,570752  	44,798613  	67,586594  	23,900798  	22,401708  	22,669235  	72,424621  	0,090782  	0,046000  	-5374,113096  	-1,684887  	-0,026846  	-0,049988  	0,338184  	0,171360  	-4,467787  	9806,670307  	7337,509756  	1,064216  	-0,047941  
124,552000  	14,189279  	42,103745  	-242,047242  	956,927186  	79,903957  	73,685711  	0,004293  	0,008522  	0,003964  	0,004033  	0,004352  	0,000001  	-0,000000  	22,539982  	18,453582  	20,061306  	23,209709  	32,216868  	29,726166  	31,676236  	33,705380  	42,937250  	40,571212  	44,804057  	67,589287  	23,901303  	22,407985  	22,669242  	72,425971  	0,033496  	0,016973  	-1982,530906  	34188,429813  	-0,026849  	-0,049992  	0,305033  	0,154562  	-4,029226  	9727,890520  	7243,689009  	1,050608  	-0,047945  
125,551000  	14,196109  	42,101830  	57,725912  	1256,670793  	79,902770  	73,680566  	0,004297  	0,008540  	0,003963  	0,004067  	0,004384  	0,000001  	-0,000000  	22,540437  	18,452331  	20,062099  	23,205509  	32,224176  	29,730182  	31,675898  	33,710024  	42,938707  	40,569361  	44,811932  	67,589064  	23,921870  	22,403203  	22,671544  	72,429265  	0,060602  	0,030707  	-3585,697379  	24487,370190  	-0,018198  	-0,049991  	0,330244  	0,167337  	-4,365012  	9766,187409  	7322,540238  	1,062045  	-0,047944  
126,549000  	14,203092  	42,106957  	1256,818530  	657,183579  	79,899271  	73,690294  	0,004298  	0,008535  	0,003962  	0,004085  	0,004336  	0,000001  	-0,000000  	22,536983  	18,457030  	20,058471  	23,204701  	32,221908  	29,731122  	31,686189  	33,712188  	42,935372  	40,573512  	44,814922  	67,588579  	23,941503  	22,393603  	22,670267  	72,430355  	0,075170  	0,038089  	-4447,357389  	-9724,294612  	-0,013763  	-0,049989  	0,292677  	0,148302  	-3,860260  	9756,090738  	7348,383840  	1,065793  	-0,047942  
127,550000  	14,210811  	42,109644  	357,499067  	-242,047242  	79,894522  	73,694348  	0,004290  	0,008533  	0,003962  	0,004110  	0,004352  	0,000001  	-0,000000  	22,539402  	18,459430  	20,055139  	23,209750  	32,226915  	29,742453  	31,672497  	33,705603  	42,935512  	40,570242  	44,812085  	67,589376  	23,936867  	22,375144  	22,673198  	72,427715  	0,096128  	0,048709  	-5686,324951  	-30936,694654  	-0,051167  	-0,049988  	0,305379  	0,154738  	-4,022085  	9750,498376  	7174,899838  	1,040631  	-0,047942  
128,549000  	14,215466  	42,109644  	-242,047242  	956,927186  	79,895709  	73,689296  	0,004298  	0,008542  	0,003959  	0,004100  	0,004344  	-0,000001  	-0,000000  	22,533581  	18,446425  	20,059696  	23,209360  	32,227848  	29,726126  	31,677526  	33,711111  	42,928376  	40,565694  	44,802538  	67,581103  	23,936982  	22,358705  	22,666397  	72,429258  	0,088044  	0,044612  	-5207,236360  	34198,676026  	-0,026857  	-0,050009  	0,298510  	0,151257  	-3,935558  	9770,559426  	7341,675801  	1,064820  	-0,047959  
129,549000  	14,210719  	42,108316  	1256,818530  	57,696365  	79,900239  	73,693724  	0,004294  	0,008539  	0,003964  	0,004037  	0,004368  	0,000001  	-0,000000  	22,542812  	18,457962  	20,067107  	23,207399  	32,240354  	29,739650  	31,690272  	33,716407  	42,934056  	40,582206  	44,811159  	67,600158  	23,944401  	22,341543  	22,675803  	72,439062  	0,036718  	0,018605  	-2171,889264  	-24487,586021  	-0,018196  	-0,049987  	0,318003  	0,161134  	-4,192630  	9763,153173  	7263,347093  	1,053459  	-0,047940  
130,550000  	14,202633  	42,108007  	1256,818530  	1256,670793  	79,901176  	73,701831  	0,004295  	0,008523  	0,003964  	0,004088  	0,004331  	0,000000  	-0,000000  	22,540750  	18,459233  	20,056167  	23,211792  	32,227337  	29,740688  	31,688448  	33,712631  	42,945558  	40,577363  	44,814173  	67,588949  	23,945256  	22,334187  	22,668005  	72,433447  	0,077918  	0,039481  	-4610,200898  	-1,993432  	-0,011068  	-0,049996  	0,288361  	0,146115  	-3,797437  	9729,939284  	7289,593177  	1,057266  	-0,047948  
131,549000  	14,194455  	42,106339  	357,499067  	357,439972  	79,897896  	73,692695  	0,004292  	0,008535  	0,003964  	0,004041  	0,004353  	0,000001  	-0,000000  	22,541666  	18,443682  	20,061624  	23,211921  	32,227922  	29,732183  	31,680187  	33,704065  	42,929802  	40,579081  	44,809461  	67,587651  	23,930527  	22,313193  	22,669439  	72,422975  	0,040080  	0,020309  	-2371,967175  	-1,685049  	-0,026849  	-0,049994  	0,305825  	0,154964  	-4,031217  	9755,170350  	7227,166051  	1,048212  	-0,047946  
132,552000  	14,185572  	42,108254  	-242,047242  	956,927186  	79,893022  	73,696000  	0,004298  	0,008529  	0,003963  	0,004063  	0,004346  	-0,000000  	-0,000000  	22,547438  	18,473080  	20,078039  	23,230952  	32,234258  	29,744310  	31,691852  	33,727303  	42,942176  	40,579257  	44,819229  	67,608913  	23,919868  	22,308734  	22,692496  	72,430259  	0,057904  	0,029340  	-3428,165882  	34195,553585  	-0,026855  	-0,050004  	0,300671  	0,152352  	-3,958057  	9741,399204  	7353,404277  	1,066521  	-0,047955  
133,549000  	14,182111  	42,110787  	57,725912  	956,927186  	79,889773  	73,685586  	0,004293  	0,008530  	0,003963  	0,004062  	0,004305  	-0,000000  	-0,000000  	22,541468  	18,464231  	20,072766  	23,214540  	32,242120  	29,744138  	31,693771  	33,712286  	42,949382  	40,578020  	44,816905  	67,589384  	23,931722  	22,290233  	22,685780  	72,435277  	0,056488  	0,028623  	-3345,079427  	21306,374922  	-0,021698  	-0,050005  	0,267476  	0,135532  	-3,525139  	9744,838807  	7241,295299  	1,050261  	-0,047956  
134,550000  	14,187808  	42,106525  	1256,818530  	357,439972  	79,896521  	73,678539  	0,004294  	0,008544  	0,003961  	0,004059  	0,004377  	-0,000000  	-0,000000  	22,548539  	18,466706  	20,078774  	23,217925  	32,236130  	29,745376  	31,694988  	33,716737  	42,946572  	40,591919  	44,822580  	67,593255  	23,940645  	22,290402  	22,681178  	72,430894  	0,054549  	0,027640  	-3229,061072  	-16235,219183  	-0,015676  	-0,050003  	0,325083  	0,164722  	-4,293889  	9774,588332  	7250,623003  	1,051614  	-0,047954  
135,548000  	14,190932  	42,107173  	1256,818530  	1256,670793  	79,894897  	73,681969  	0,004301  	0,008513  	0,003962  	0,004071  	0,004366  	-0,000000  	-0,000000  	22,547122  	18,464115  	20,063816  	23,222968  	32,224939  	29,740220  	31,687889  	33,718216  	42,941069  	40,580376  	44,816955  	67,582966  	23,926435  	22,289904  	22,677380  	72,421255  	0,063942  	0,032400  	-3784,785697  	-1,993617  	-0,011069  	-0,050002  	0,315798  	0,160017  	-4,167859  	9708,904080  	7406,722593  	1,074254  	-0,047953  
136,549000  	14,193444  	42,108779  	1256,818530  	57,696365  	79,891460  	73,685149  	0,004292  	0,008537  	0,003963  	0,004049  	0,004394  	0,000000  	-0,000000  	22,542735  	18,458117  	20,071157  	23,217500  	32,235241  	29,744864  	31,698942  	33,719792  	42,945536  	40,578159  	44,820726  	67,592426  	23,927507  	22,292089  	22,687958  	72,425732  	0,046433  	0,023528  	-2748,327539  	-24491,076452  	-0,018198  	-0,049995  	0,338609  	0,171576  	-4,464157  	9758,941038  	7209,089652  	1,045590  	-0,047947  
137,549000  	14,204195  	42,111034  	1256,818530  	-242,047242  	79,895522  	73,701987  	0,004301  	0,008527  	0,003964  	0,004062  	0,004372  	0,000001  	-0,000000  	22,544929  	18,462944  	20,067481  	23,215821  	32,234896  	29,748035  	31,694745  	33,719531  	42,951621  	40,581255  	44,823095  	67,586043  	23,930522  	22,290474  	22,690320  	72,422263  	0,056653  	0,028707  	-3352,217513  	-35499,104349  	-0,021688  	-0,049983  	0,320998  	0,162652  	-4,223271  	9737,919276  	7408,127751  	1,074458  	-0,047937  
138,548000  	14,214486  	42,113690  	657,272221  	357,439972  	79,898021  	73,707350  	0,004295  	0,008527  	0,003962  	0,004077  	0,004347  	0,000001  	-0,000000  	22,537094  	18,457365  	20,064352  	23,210649  	32,231362  	29,738159  	31,681862  	33,708809  	42,949373  	40,574528  	44,810228  	67,591329  	23,920180  	22,282780  	22,684515  	72,429533  	0,069034  	0,034980  	-4083,662659  	-7102,030898  	-0,021691  	-0,049988  	0,301316  	0,152679  	-3,962489  	9737,518154  	7282,969872  	1,056305  	-0,047941  
139,550000  	14,218989  	42,112671  	657,272221  	1256,670793  	79,897240  	73,707475  	0,004297  	0,008529  	0,003961  	0,004086  	0,004342  	-0,000000  	-0,000000  	22,549049  	18,466095  	20,077753  	23,216648  	32,245036  	29,744082  	31,684748  	33,712635  	42,947133  	40,577094  	44,814702  	67,598089  	23,920214  	22,295689  	22,686306  	72,428017  	0,076570  	0,038799  	-4528,548633  	9722,870263  	-0,013766  	-0,050002  	0,297294  	0,150641  	-3,909029  	9742,589128  	7319,390991  	1,061588  	-0,047953  
140,548000  	14,220520  	42,109829  	1256,818530  	57,696365  	79,897240  	73,686646  	0,004291  	0,008558  	0,003962  	0,004069  	0,004312  	-0,000001  	-0,000000  	22,549059  	18,462245  	20,075879  	23,223281  	32,244649  	29,741740  	31,684392  	33,717886  	42,943773  	40,574673  	44,813798  	67,594544  	23,924686  	22,294544  	22,686345  	72,421897  	0,062759  	0,031800  	-3711,146721  	-24498,319185  	-0,018204  	-0,050011  	0,273413  	0,138540  	-3,607109  	9804,344224  	7194,960405  	1,043541  	-0,047961  
141,551000  	14,211423  	42,110478  	957,045375  	57,696365  	79,901083  	73,678570  	0,004298  	0,008506  	0,003961  	0,004070  	0,004355  	-0,000001  	-0,000000  	22,547217  	18,458253  	20,071736  	23,215906  	32,240579  	29,738478  	31,694997  	33,716155  	42,945242  	40,575545  	44,813668  	67,588853  	23,928210  	22,285532  	22,684964  	72,418358  	0,063092  	0,031969  	-3732,155348  	-21310,597581  	-0,021699  	-0,050010  	0,307228  	0,155675  	-4,061006  	9693,005643  	7347,006927  	1,065593  	-0,047960  
142,549000  	14,207503  	42,113628  	357,499067  	1256,670793  	79,907956  	73,682125  	0,004291  	0,008530  	0,003964  	0,004076  	0,004339  	0,000000  	-0,000000  	22,552476  	18,462881  	20,071441  	23,216092  	32,239664  	29,734205  	31,699992  	33,713247  	42,945915  	40,577093  	44,812048  	67,591766  	23,943718  	22,275315  	22,688600  	72,422791  	0,068147  	0,034531  	-4032,190366  	16230,778620  	-0,015675  	-0,049999  	0,294490  	0,149220  	-3,894709  	9745,517955  	7198,448585  	1,044047  	-0,047951  
143,547000  	14,206308  	42,113999  	357,499067  	1256,670793  	79,912236  	73,676169  	0,004294  	0,008524  	0,003964  	0,004030  	0,004397  	0,000001  	-0,000000  	22,550538  	18,466726  	20,069667  	23,221753  	32,236874  	29,733850  	31,690278  	33,716208  	42,942163  	40,573496  	44,810115  	67,591119  	23,943060  	22,257045  	22,692767  	72,427756  	0,031034  	0,015725  	-1836,345086  	16226,481856  	-0,015671  	-0,049984  	0,340526  	0,172547  	-4,510951  	9731,999367  	7252,649537  	1,051908  	-0,047938  
144,549000  	14,206860  	42,109366  	-242,047242  	57,696365  	79,910799  	73,679474  	0,004301  	0,008541  	0,003962  	0,004071  	0,004410  	0,000001  	-0,000001  	22,547711  	18,466339  	20,072699  	23,223556  	32,240972  	29,745591  	31,687034  	33,718762  	42,946439  	40,576253  	44,813296  	67,591038  	23,936550  	22,242645  	22,699562  	72,429716  	0,064427  	0,032646  	-3811,601577  	27691,419136  	-0,093541  	-0,049984  	0,350837  	0,177772  	-4,644009  	9767,633429  	7412,526812  	1,075096  	-0,047938  
145,549000  	14,210627  	42,106247  	57,725912  	1256,670793  	79,900489  	73,691510  	0,004294  	0,008548  	0,003965  	0,004009  	0,004365  	0,000001  	-0,000000  	22,556723  	18,472246  	20,078259  	23,227771  	32,253938  	29,756004  	31,697638  	33,723594  	42,958310  	40,582929  	44,818459  	67,593257  	23,946900  	22,239904  	22,704978  	72,433357  	0,013966  	0,007076  	-826,019237  	24487,386332  	-0,018198  	-0,049992  	0,315005  	0,159616  	-4,154757  	9782,717596  	7260,240212  	1,053009  	-0,047944  
146,551000  	14,214915  	42,106370  	1256,818530  	1256,670793  	79,891054  	73,695127  	0,004299  	0,008530  	0,003964  	0,004065  	0,004401  	0,000001  	-0,000000  	22,564196  	18,479931  	20,079351  	23,229599  	32,255348  	29,754426  	31,703398  	33,729394  	42,960051  	40,589020  	44,823897  	67,589514  	23,953180  	22,226974  	22,700670  	72,434503  	0,059006  	0,029899  	-3489,507700  	-1,993006  	-0,011065  	-0,049984  	0,343537  	0,174073  	-4,521550  	9744,340057  	7365,556419  	1,068284  	-0,047938  
147,549000  	14,210045  	42,104981  	1256,818530  	1256,670793  	79,885056  	73,689982  	0,004296  	0,008514  	0,003963  	0,004056  	0,004330  	0,000002  	-0,000000  	22,555891  	18,473628  	20,079141  	23,226451  	32,244172  	29,750199  	31,696566  	33,721830  	42,953338  	40,590588  	44,827553  	67,592160  	23,949038  	22,207342  	22,699630  	72,432905  	0,051629  	0,026161  	-3053,624999  	-1,992709  	-0,011064  	-0,049976  	0,287921  	0,145892  	-3,789026  	9709,495505  	7297,776984  	1,058453  	-0,047931  
148,550000  	14,203490  	42,104919  	1256,818530  	1256,670793  	79,883494  	73,685866  	0,004296  	0,008537  	0,003961  	0,004112  	0,004362  	0,000001  	-0,000000  	22,547667  	18,465525  	20,081447  	23,227494  	32,241541  	29,749525  	31,694426  	33,712687  	42,952693  	40,579465  	44,822476  	67,594236  	23,945267  	22,198016  	22,702733  	72,434191  	0,097667  	0,049489  	-5777,924871  	-1,993215  	-0,011066  	-0,049990  	0,313012  	0,158605  	-4,120910  	9760,360175  	7301,328714  	1,058968  	-0,047943  
149,549000  	14,197395  	42,103436  	57,725912  	-242,047242  	79,887024  	73,690045  	0,004291  	0,008526  	0,003962  	0,004085  	0,004353  	-0,000001  	-0,000000  	22,551724  	18,461532  	20,081568  	23,227578  	32,238866  	29,743781  	31,693690  	33,712642  	42,950061  	40,577255  	44,807931  	67,580442  	23,944907  	22,171137  	22,693645  	72,430772  	0,075135  	0,038072  	-4445,679414  	-27705,510799  	-0,093579  	-0,050011  	0,305724  	0,154913  	-4,024547  	9736,945830  	7185,830411  	1,042217  	-0,047961  
150,550000  	14,188697  	42,106154  	1256,818530  	-242,047242  	79,888149  	73,690169  	0,004296  	0,008546  	0,003962  	0,004078  	0,004368  	-0,000001  	-0,000000  	22,550469  	18,460495  	20,073525  	23,225157  	32,238059  	29,735646  	31,687825  	33,716339  	42,944308  	40,577983  	44,807293  	67,578306  	23,942927  	22,158608  	22,690331  	72,423643  	0,069487  	0,035210  	-4113,192043  	-35518,133745  	-0,021700  	-0,050013  	0,317864  	0,161064  	-4,185032  	9779,071418  	7301,286348  	1,058962  	-0,047963  
151,549000  	14,180794  	42,108192  	1256,818530  	-242,047242  	79,887618  	73,683123  	0,004292  	0,008548  	0,003962  	0,004076  	0,004346  	0,000000  	-0,000000  	22,552842  	18,477676  	20,083924  	23,237855  	32,243651  	29,743284  	31,697136  	33,722746  	42,953231  	40,590643  	44,823547  	67,590556  	23,954209  	22,160344  	22,693379  	72,421805  	0,067832  	0,034371  	-4016,603195  	-35507,919552  	-0,021694  	-0,049997  	0,300586  	0,152309  	-3,961703  	9783,297701  	7217,937202  	1,046873  	-0,047949  
152,551000  	14,172218  	42,108810  	57,725912  	-242,047242  	79,886368  	73,684869  	0,004295  	0,008526  	0,003963  	0,004076  	0,004366  	0,000001  	-0,000000  	22,561616  	18,484106  	20,086751  	23,242893  	32,253411  	29,756079  	31,698062  	33,730040  	42,956508  	40,588180  	44,826534  	67,601319  	23,939928  	22,156696  	22,707668  	72,426546  	0,068008  	0,034460  	-4028,410550  	-27695,912179  	-0,093547  	-0,049992  	0,316029  	0,160134  	-4,163233  	9735,733975  	7285,653087  	1,056695  	-0,047945  
153,549000  	14,164561  	42,109922  	-242,047242  	1256,670793  	79,886493  	73,693974  	0,004300  	0,008521  	0,003964  	0,004046  	0,004395  	0,000001  	-0,000000  	22,555365  	18,468759  	20,081424  	23,230345  	32,245009  	29,750724  	31,691451  	33,727854  	42,959241  	40,577223  	44,816295  	67,590151  	23,938415  	22,130400  	22,686267  	72,422555  	0,043579  	0,022082  	-2582,191385  	35502,443826  	-0,021693  	-0,049990  	0,339248  	0,171899  	-4,462642  	9724,162278  	7396,060342  	1,072708  	-0,047943  
154,547000  	14,162233  	42,112516  	-242,047242  	1256,670793  	79,891554  	73,689982  	0,004293  	0,008538  	0,003964  	0,004037  	0,004356  	0,000001  	-0,000000  	22,557214  	18,467143  	20,077058  	23,230261  	32,245805  	29,744110  	31,693357  	33,727752  	42,958523  	40,579959  	44,820855  	67,589015  	23,943191  	22,126304  	22,690993  	72,423765  	0,036289  	0,018388  	-2150,575619  	35500,948648  	-0,021692  	-0,049987  	0,307895  	0,156013  	-4,056130  	9762,468365  	7232,207672  	1,048943  	-0,047941  
155,550000  	14,161314  	42,113628  	657,272221  	1256,670793  	79,895834  	73,677229  	0,004301  	0,008544  	0,003962  	0,004043  	0,004424  	0,000002  	-0,000000  	22,555666  	18,468411  	20,075114  	23,232637  	32,242086  	29,752409  	31,695389  	33,724908  	42,953333  	40,593565  	44,824674  	67,584980  	23,948265  	22,120231  	22,702905  	72,428191  	0,041089  	0,020820  	-2435,231486  	9717,729766  	-0,013759  	-0,049972  	0,361933  	0,183394  	-4,781104  	9774,162449  	7412,512689  	1,075094  	-0,047928  
156,548000  	14,164010  	42,114122  	1256,818530  	57,696365  	79,899771  	73,676419  	0,004296  	0,008531  	0,003963  	0,004030  	0,004360  	0,000001  	-0,000000  	22,556247  	18,480351  	20,094420  	23,243240  	32,253480  	29,755852  	31,705647  	33,726842  	42,958519  	40,593305  	44,827243  	67,597837  	23,943568  	22,108200  	22,709076  	72,431587  	0,031023  	0,015720  	-1838,516023  	-24489,340205  	-0,018197  	-0,049991  	0,311091  	0,157632  	-4,112611  	9747,351656  	7298,355994  	1,058537  	-0,047943  
157,549000  	14,165664  	42,113752  	57,725912  	57,696365  	79,902020  	73,692040  	0,004297  	0,008530  	0,003962  	0,004096  	0,004374  	0,000000  	-0,000000  	22,548644  	18,477593  	20,088549  	23,234151  	32,251798  	29,755878  	31,705443  	33,732483  	42,953450  	40,577313  	44,825421  	67,594021  	23,952102  	22,096397  	22,707449  	72,431802  	0,084063  	0,042595  	-4981,428557  	-1,524872  	-0,051174  	-0,049994  	0,322120  	0,163221  	-4,249284  	9744,591908  	7331,006489  	1,063273  	-0,047946  
158,550000  	14,167073  	42,112578  	657,272221  	1256,670793  	79,901333  	73,683871  	0,004291  	0,008529  	0,003961  	0,004072  	0,004344  	0,000001  	-0,000001  	22,572735  	18,484620  	20,083346  	23,233398  	32,245994  	29,755559  	31,706666  	33,730860  	42,957938  	40,593378  	44,827566  	67,589907  	23,958055  	22,085709  	22,704089  	72,432846  	0,065079  	0,032976  	-3856,109211  	9720,903774  	-0,013763  	-0,049990  	0,298990  	0,151500  	-3,948901  	9742,266533  	7193,181009  	1,043283  	-0,047943  
159,549000  	14,172310  	42,109613  	-242,047242  	1256,670793  	79,898552  	73,680815  	0,004296  	0,008541  	0,003961  	0,004101  	0,004376  	0,000000  	-0,000000  	22,552719  	18,466808  	20,074040  	23,227491  	32,241822  	29,735089  	31,689460  	33,723290  	42,950058  	40,580526  	44,818384  	67,581395  	23,955651  	22,065162  	22,698956  	72,421467  	0,088648  	0,044919  	-5251,132588  	35508,728773  	-0,021696  	-0,050000  	0,324321  	0,164336  	-4,283655  	9769,166465  	7307,485988  	1,059861  	-0,047951  
160,551000  	14,177578  	42,111651  	957,045375  	1256,670793  	79,898052  	73,685180  	0,004291  	0,008521  	0,003962  	0,004070  	0,004331  	0,000000  	-0,000000  	22,547059  	18,478536  	20,079102  	23,230174  	32,252509  	29,752540  	31,690816  	33,720968  	42,958084  	40,587694  	44,823907  	67,581803  	23,963293  	22,049319  	22,703352  	72,421409  	0,063211  	0,032029  	-3743,873206  	4416,711390  	-0,012270  	-0,049999  	0,288124  	0,145995  	-3,802589  	9725,038804  	7206,914835  	1,045275  	-0,047951  
161,549000  	14,176231  	42,112547  	1256,818530  	956,927186  	79,897271  	73,682748  	0,004292  	0,008556  	0,003964  	0,004049  	0,004391  	0,000000  	-0,000000  	22,559480  	18,479503  	20,079058  	23,230545  	32,246060  	29,755289  	31,694605  	33,719139  	42,955208  	40,578647  	44,821652  	67,582450  	23,964099  	22,049460  	22,712673  	72,422968  	0,046177  	0,023398  	-2735,212666  	-4420,268441  	-0,012269  	-0,049995  	0,335916  	0,170211  	-4,434506  	9801,154349  	7222,180919  	1,047489  	-0,047947  
162,548000  	14,173780  	42,110756  	657,272221  	357,439972  	79,899521  	73,687488  	0,004298  	0,008529  	0,003963  	0,004077  	0,004323  	0,000000  	-0,000000  	22,554319  	18,478370  	20,074717  	23,219156  	32,242977  	29,742042  	31,685307  	33,718001  	42,948887  	40,572241  	44,813175  	67,574394  	23,969312  	22,036071  	22,702028  	72,426733  	0,068696  	0,034809  	-4069,209168  	-7103,063996  	-0,021694  	-0,049996  	0,282340  	0,143064  	-3,725749  	9741,634783  	7341,760534  	1,064832  	-0,047948  
163,549000  	14,176629  	42,112146  	657,272221  	357,439972  	79,903926  	73,686428  	0,004295  	0,008535  	0,003963  	0,004042  	0,004356  	0,000001  	-0,000000  	22,570872  	18,486249  	20,087012  	23,242081  	32,250205  	29,751826  	31,701820  	33,732704  	42,964360  	40,583007  	44,826779  	67,594387  	23,982113  	22,046063  	22,722221  	72,437717  	0,040359  	0,020450  	-2390,551106  	-7102,450692  	-0,021692  	-0,049991  	0,308437  	0,156288  	-4,073708  	9754,288872  	7286,839351  	1,056867  	-0,047944  
164,547000  	14,182693  	42,108934  	1256,818530  	956,927186  	79,906675  	73,698713  	0,004298  	0,008521  	0,003964  	0,004089  	0,004366  	0,000001  	-0,000000  	22,563420  	18,482167  	20,088374  	23,235733  	32,251937  	29,746077  	31,697292  	33,727516  	42,961011  	40,585763  	44,823829  	67,592438  	23,977555  	22,029785  	22,713886  	72,432171  	0,078341  	0,039696  	-4638,750595  	-4419,480826  	-0,012267  	-0,049985  	0,315962  	0,160100  	-4,166700  	9724,762193  	7349,866670  	1,066008  	-0,047939  
165,549000  	14,187196  	42,106648  	-242,047242  	956,927186  	79,905581  	73,690325  	0,004296  	0,008532  	0,003964  	0,004059  	0,004361  	0,000001  	-0,000000  	22,561832  	18,481910  	20,092237  	23,227359  	32,249892  	29,749377  	31,698459  	33,730754  	42,965593  	40,590872  	44,830206  	67,588101  	23,982891  	22,025935  	22,718044  	72,433987  	0,054359  	0,027544  	-3217,917029  	34184,248196  	-0,026846  	-0,049985  	0,312457  	0,158324  	-4,125306  	9749,181111  	7304,520328  	1,059431  	-0,047939  
166,548000  	14,188176  	42,104363  	-242,047242  	357,439972  	79,903020  	73,691635  	0,004299  	0,008540  	0,003960  	0,004103  	0,004380  	0,000001  	-0,000000  	22,555521  	18,476765  	20,082516  	23,224540  	32,241526  	29,750088  	31,691981  	33,717787  	42,957524  	40,585988  	44,823491  	67,588127  	23,987055  	22,021078  	22,719033  	72,427711  	0,090041  	0,045625  	-5329,603119  	30935,451497  	-0,051170  	-0,049987  	0,327409  	0,165900  	-4,320027  	9766,916079  	7365,951840  	1,068341  	-0,047940  
167,550000  	14,187257  	42,105382  	657,272221  	357,439972  	79,896240  	73,703765  	0,004293  	0,008529  	0,003961  	0,004045  	0,004375  	0,000001  	-0,000000  	22,557170  	18,478169  	20,084733  	23,232240  	32,245505  	29,756631  	31,696477  	33,722173  	42,957110  	40,581480  	44,823538  	67,590458  	23,990954  	22,011496  	22,715143  	72,434954  	0,042762  	0,021668  	-2531,276585  	-7102,466818  	-0,021692  	-0,049991  	0,323652  	0,163997  	-4,257468  	9742,026708  	7242,093202  	1,050377  	-0,047944  
168,548000  	14,184317  	42,107976  	1256,818530  	956,927186  	79,889117  	73,691479  	0,004295  	0,008524  	0,003962  	0,004089  	0,004393  	0,000001  	-0,000000  	22,561864  	18,479966  	20,095990  	23,234263  	32,252844  	29,759494  	31,703038  	33,734863  	42,961836  	40,587326  	44,832462  	67,591736  	23,991053  	22,005730  	22,721769  	72,441316  	0,079060  	0,040060  	-4680,838804  	-4419,908139  	-0,012268  	-0,049991  	0,337218  	0,170871  	-4,439610  	9731,313852  	7292,664753  	1,057712  	-0,047943  
169,550000  	14,177088  	42,112393  	957,045375  	57,696365  	79,885618  	73,682998  	0,004294  	0,008535  	0,003963  	0,004065  	0,004344  	0,000001  	-0,000000  	22,564697  	18,479487  	20,089152  	23,227157  	32,252157  	29,754510  	31,703399  	33,724880  	42,959214  	40,589354  	44,832717  	67,588943  	23,984904  	21,998533  	22,719681  	72,436663  	0,059430  	0,030113  	-3520,093384  	-21303,939826  	-0,021692  	-0,049992  	0,299058  	0,151535  	-3,940381  	9754,504643  	7269,793871  	1,054394  	-0,047945  
170,549000  	14,170779  	42,113319  	-242,047242  	1256,670793  	79,887555  	73,687363  	0,004292  	0,008524  	0,003961  	0,004070  	0,004403  	0,000001  	-0,000000  	22,562076  	18,478638  	20,082299  	23,231300  	32,249008  	29,745954  	31,702341  	33,719869  	42,957293  	40,587102  	44,826912  	67,586430  	23,973780  	21,993273  	22,717752  	72,432003  	0,062983  	0,031914  	-3731,552957  	35503,871396  	-0,021693  	-0,049992  	0,345408  	0,175021  	-4,549307  	9730,895751  	7221,397138  	1,047375  	-0,047945  
171,551000  	14,169308  	42,112578  	657,272221  	1256,670793  	79,891335  	73,683497  	0,004299  	0,008535  	0,003965  	0,004056  	0,004345  	0,000000  	-0,000000  	22,559457  	18,474423  	20,084956  	23,233931  	32,249895  	29,748037  	31,696700  	33,731955  	42,960513  	40,588019  	44,827842  	67,588961  	23,964117  	21,988052  	22,722427  	72,431704  	0,051963  	0,026330  	-3078,733077  	9721,718279  	-0,013764  	-0,049995  	0,299336  	0,151676  	-3,947355  	9755,768142  	7377,757988  	1,070053  	-0,047947  
172,549000  	14,173903  	42,109798  	57,725912  	1256,670793  	79,893022  	73,683933  	0,004293  	0,008528  	0,003965  	0,004050  	0,004394  	0,000002  	-0,000000  	22,564828  	18,479590  	20,086182  	23,231051  	32,256238  	29,758406  	31,695406  	33,738656  	42,963020  	40,592314  	44,834099  	67,593552  	23,964085  	21,986429  	22,724115  	72,432676  	0,047040  	0,023836  	-2786,316707  	24482,500910  	-0,018195  	-0,049980  	0,338069  	0,171302  	-4,459031  	9739,420477  	7235,858257  	1,049473  	-0,047935  
173,551000  	14,185327  	42,107791  	1256,818530  	956,927186  	79,894741  	73,680628  	0,004296  	0,008534  	0,003964  	0,004057  	0,004327  	-0,000001  	-0,000000  	22,566536  	18,489404  	20,087482  	23,236922  	32,262088  	29,757319  	31,702573  	33,737524  	42,964675  	40,596755  	44,833228  	67,591831  	23,966688  	21,990979  	22,728190  	72,433964  	0,052767  	0,026737  	-3124,015574  	-4421,446465  	-0,012273  	-0,050010  	0,285017  	0,144420  	-3,762323  	9753,865112  	7303,093988  	1,059224  	-0,047960  
174,549000  	14,191576  	42,107297  	1256,818530  	357,439972  	79,897990  	73,682998  	0,004294  	0,008536  	0,003963  	0,004053  	0,004365  	0,000000  	-0,000000  	22,558898  	18,479735  	20,083696  	23,233295  	32,255852  	29,752524  	31,700207  	33,731077  	42,962928  	40,596968  	44,830702  	67,588904  	23,963153  	21,986550  	22,724281  	72,435979  	0,049554  	0,025109  	-2933,092027  	-16232,708382  	-0,015674  	-0,049995  	0,315299  	0,159764  	-4,162647  	9756,595854  	7251,915183  	1,051801  	-0,047947  
175,548000  	14,194332  	42,110169  	1256,818530  	1256,670793  	79,900333  	73,686490  	0,004297  	0,008528  	0,003962  	0,004100  	0,004324  	-0,000000  	-0,000000  	22,549399  	18,471364  	20,086706  	23,231722  	32,243626  	29,746781  	31,694411  	33,725466  	42,953115  	40,598940  	44,837446  	67,596958  	23,957245  	21,990752  	22,723304  	72,430486  	0,087976  	0,044578  	-5207,267125  	-1,993748  	-0,011069  	-0,050005  	0,283224  	0,143511  	-3,738495  	9739,580360  	7322,610849  	1,062055  	-0,047956  
176,549000  	14,193720  	42,112825  	57,725912  	57,696365  	79,903332  	73,686428  	0,004290  	0,008515  	0,003961  	0,004061  	0,004380  	0,000001  	-0,000000  	22,551800  	18,474553  	20,089896  	23,232796  	32,250574  	29,751646  	31,699927  	33,723565  	42,958091  	40,596122  	44,837360  	67,594992  	23,953500  	21,994827  	22,729040  	72,430562  	0,056321  	0,028538  	-3334,004642  	-1,524614  	-0,051166  	-0,049985  	0,327508  	0,165951  	-4,325176  	9713,245677  	7180,442797  	1,041435  	-0,047938  
177,547000  	14,192862  	42,114277  	1256,818530  	956,927186  	79,900739  	73,685149  	0,004296  	0,008535  	0,003961  	0,004115  	0,004391  	0,000000  	-0,000000  	22,551779  	18,476100  	20,081556  	23,229764  	32,253176  	29,752884  	31,698008  	33,723290  	42,959306  	40,598732  	44,832494  	67,589234  	23,960140  	21,993255  	22,726175  	72,432030  	0,099589  	0,050462  	-5895,820037  	-4420,183302  	-0,012269  	-0,049994  	0,335736  	0,170120  	-4,432899  	9754,740223  	7299,033859  	1,058635  	-0,047946  
178,551000  	14,189677  	42,116191  	1256,818530  	357,439972  	79,895865  	73,682967  	0,004299  	0,008530  	0,003962  	0,004048  	0,004388  	0,000001  	-0,000000  	22,563899  	18,479317  	20,091571  	23,231509  	32,258791  	29,748133  	31,703571  	33,727507  	42,963235  	40,595284  	44,833501  	67,595388  	23,976644  	22,014746  	22,730826  	72,440543  	0,045296  	0,022952  	-2682,083087  	-16229,870653  	-0,015671  	-0,049985  	0,333161  	0,168815  	-4,396988  	9743,926201  	7360,479493  	1,067547  	-0,047939  
179,549000  	14,185266  	42,113134  	357,499067  	1256,670793  	79,891085  	73,685523  	0,004293  	0,008535  	0,003964  	0,004042  	0,004392  	0,000001  	-0,000000  	22,549193  	18,480538  	20,082252  	23,226458  	32,240367  	29,740827  	31,684452  	33,722175  	42,947982  	40,589712  	44,834956  	67,594461  	23,959232  	22,008045  	22,719525  	72,434972  	0,040992  	0,020771  	-2427,368219  	16229,174020  	-0,015674  	-0,049994  	0,336458  	0,170486  	-4,435260  	9755,832520  	7235,512263  	1,049422  	-0,047946  
180,552000  	14,183796  	42,110910  	-242,047242  	1256,670793  	79,889586  	73,691947  	0,004301  	0,008529  	0,003966  	0,004060  	0,004338  	0,000001  	-0,000000  	22,547786  	18,475805  	20,084580  	23,227652  	32,242119  	29,746336  	31,687017  	33,724913  	42,957014  	40,583194  	44,828536  	67,591716  	23,950935  	22,000954  	22,721813  	72,426321  	0,055310  	0,028026  	-3275,105522  	35501,791148  	-0,021692  	-0,049989  	0,294033  	0,148989  	-3,871063  	9743,466361  	7413,105821  	1,075180  	-0,047942  
181,548000  	14,184990  	42,110107  	57,725912  	1256,670793  	79,890773  	73,689546  	0,004294  	0,008535  	0,003963  	0,004102  	0,004376  	0,000002  	-0,000000  	22,565743  	18,488525  	20,098290  	23,231252  	32,263173  	29,764219  	31,710781  	33,740877  	42,970306  	40,596995  	44,839584  	67,590652  	23,965464  	22,007848  	22,734444  	72,446159  	0,089279  	0,045238  	-5286,162952  	24481,326185  	-0,018194  	-0,049978  	0,324012  	0,164179  	-4,268211  	9755,652121  	7255,007942  	1,052250  	-0,047932  
182,548000  	14,188605  	42,107081  	1256,818530  	657,183579  	79,891898  	73,686303  	0,004297  	0,008526  	0,003963  	0,004070  	0,004355  	0,000000  	-0,000000  	22,560520  	18,484175  	20,083849  	23,230157  	32,246692  	29,749993  	31,701862  	33,719149  	42,962914  	40,591115  	44,830331  	67,605368  	23,958029  	21,985080  	22,732104  	72,418974  	0,063660  	0,032257  	-3768,372067  	-9725,649305  	-0,013764  	-0,049997  	0,307506  	0,155816  	-4,053637  	9734,900603  	7318,430682  	1,061449  	-0,047949  
183,549000  	14,191545  	42,106154  	357,499067  	-242,047242  	79,897490  	73,690575  	0,004295  	0,008523  	0,003964  	0,004060  	0,004360  	0,000001  	-0,000000  	22,553553  	18,475560  	20,078118  	23,242462  	32,232779  	29,737332  	31,690599  	33,719667  	42,952763  	40,591175  	44,829746  	67,592698  	23,949583  	21,981707  	22,731507  	72,417948  	0,055544  	0,028145  	-3287,505173  	-30934,732343  	-0,051164  	-0,049985  	0,311015  	0,157594  	-4,100762  	9728,565423  	7292,594142  	1,057701  	-0,047939  
184,549000  	14,190136  	42,108069  	957,045375  	-242,047242  	79,897178  	73,694566  	0,004295  	0,008530  	0,003963  	0,004062  	0,004319  	0,000001  	-0,000000  	22,543291  	18,479292  	20,084745  	23,237760  	32,233834  	29,744553  	31,690545  	33,720062  	42,955115  	40,586985  	44,834296  	67,590316  	23,945132  	21,974807  	22,729936  	72,438554  	0,056624  	0,028692  	-3351,810125  	-34188,818638  	-0,026847  	-0,049992  	0,279279  	0,141513  	-3,679771  	9745,170599  	7291,414939  	1,057530  	-0,047944  
185,551000  	14,191484  	42,111682  	57,725912  	57,696365  	79,895459  	73,701052  	0,004290  	0,008559  	0,003962  	0,004041  	0,004353  	-0,000000  	-0,000001  	22,555594  	18,484112  	20,089416  	23,224305  	32,247707  	29,751796  	31,696840  	33,725891  	42,964110  	40,582338  	44,828724  	67,591732  	23,957129  	21,972893  	22,739302  	72,440309  	0,040251  	0,020396  	-2382,850483  	-1,525153  	-0,051184  	-0,050005  	0,305817  	0,154960  	-4,024111  	9807,800806  	7168,587221  	1,039716  	-0,047955  
186,549000  	14,196629  	42,110447  	1256,818530  	1256,670793  	79,898646  	73,698620  	0,004298  	0,008524  	0,003960  	0,004069  	0,004370  	0,000000  	-0,000000  	22,557844  	18,480357  	20,088750  	23,230239  	32,250696  	29,755960  	31,699529  	33,722744  	42,957867  	40,594525  	44,828811  	67,586730  	23,952490  	21,964192  	22,731977  	72,430531  	0,062648  	0,031744  	-3707,877304  	-1,993462  	-0,011068  	-0,049997  	0,319631  	0,161959  	-4,209687  	9732,157835  	7342,833821  	1,064988  	-0,047949  
187,550000  	14,198651  	42,109428  	1256,818530  	357,439972  	79,895615  	73,694472  	0,004296  	0,008520  	0,003960  	0,004099  	0,004353  	-0,000000  	-0,000001  	22,552584  	18,473577  	20,084200  	23,225065  	32,250046  	29,750487  	31,688098  	33,720201  	42,956025  	40,588860  	44,832966  	67,582911  	23,943454  	21,963300  	22,733470  	72,441671  	0,086660  	0,043911  	-5128,430985  	-16234,332319  	-0,015675  	-0,050000  	0,305633  	0,154866  	-4,026050  	9722,874019  	7309,434849  	1,060144  	-0,047952  
188,549000  	14,202939  	42,110972  	1256,818530  	956,927186  	79,897178  	73,690544  	0,004291  	0,008525  	0,003963  	0,004069  	0,004374  	-0,000000  	-0,000000  	22,556382  	18,468888  	20,088571  	23,230015  	32,244215  	29,756905  	31,688636  	33,721662  	42,954424  	40,587474  	44,832467  	67,584997  	23,938918  	21,966306  	22,740986  	72,428289  	0,062660  	0,031750  	-3707,813567  	-4421,061236  	-0,012272  	-0,050005  	0,322357  	0,163341  	-4,250117  	9733,180802  	7193,604675  	1,043344  	-0,047956  
189,549000  	14,208207  	42,113196  	1256,818530  	57,696365  	79,902082  	73,670931  	0,004298  	0,008534  	0,003962  	0,004073  	0,004388  	0,000001  	-0,000000  	22,564434  	18,479993  	20,086399  	23,233522  	32,246327  	29,752853  	31,697858  	33,735905  	42,967907  	40,588907  	44,834630  	67,591184  	23,944217  	21,976258  	22,745448  	72,434793  	0,065399  	0,033138  	-3869,441159  	-24489,675616  	-0,018197  	-0,049991  	0,333758  	0,169118  	-4,417798  	9753,611846  	7344,902721  	1,065288  	-0,047944  
190,547000  	14,216784  	42,111466  	1256,818530  	657,183579  	79,899208  	73,669122  	0,004292  	0,008525  	0,003963  	0,004075  	0,004345  	-0,000001  	-0,000001  	22,565565  	18,478901  	20,081999  	23,232850  	32,245166  	29,745158  	31,696889  	33,725631  	42,964633  	40,586936  	44,835538  	67,587244  	23,947247  	21,966305  	22,742935  	72,429514  	0,067428  	0,034166  	-3988,011904  	-9728,425643  	-0,013768  	-0,050013  	0,299721  	0,151871  	-3,966587  	9732,766238  	7222,894090  	1,047592  	-0,047962  
191,549000  	14,224135  	42,109520  	357,499067  	657,183579  	79,895209  	73,676917  	0,004297  	0,008538  	0,003965  	0,004070  	0,004342  	0,000000  	-0,000000  	22,558895  	18,481913  	20,081921  	23,235277  	32,244695  	29,751814  	31,698288  	33,726735  	42,962687  	40,590270  	44,830102  	67,591034  	23,942567  	21,964669  	22,749233  	72,429435  	0,063541  	0,032197  	-3756,852364  	7099,486632  	-0,021694  	-0,049995  	0,297427  	0,150709  	-3,928789  	9760,771201  	7319,122669  	1,061549  	-0,047947  
192,549000  	14,224135  	42,108347  	-242,047242  	57,696365  	79,895084  	73,684713  	0,004294  	0,008521  	0,003965  	0,004073  	0,004369  	0,000000  	-0,000000  	22,559451  	18,483734  	20,082729  	23,240887  	32,245273  	29,751118  	31,693413  	33,724604  	42,961372  	40,589753  	44,827747  	67,597090  	23,938468  	21,971960  	22,746238  	72,429185  	0,065656  	0,033268  	-3881,757810  	27699,116955  	-0,093567  	-0,050000  	0,318333  	0,161302  	-4,199582  	9724,905097  	7254,831415  	1,052224  	-0,047951  
193,549000  	14,222236  	42,103992  	1256,818530  	1256,670793  	79,894866  	73,690481  	0,004299  	0,008539  	0,003963  	0,004045  	0,004367  	0,000001  	-0,000000  	22,563132  	18,482946  	20,090878  	23,237952  	32,249291  	29,755573  	31,699455  	33,730346  	42,964671  	40,590739  	44,829820  	67,598414  	23,940331  	21,984928  	22,751043  	72,433193  	0,042813  	0,021693  	-2530,968448  	-1,993125  	-0,011066  	-0,049988  	0,316612  	0,160429  	-4,172853  	9762,941646  	7359,349718  	1,067383  	-0,047941  
194,548000  	14,221623  	42,104857  	1256,818530  	657,183579  	79,896553  	73,682873  	0,004293  	0,008507  	0,003964  	0,004047  	0,004375  	0,000001  	-0,000000  	22,556920  	18,478085  	20,086524  	23,235089  	32,245443  	29,753076  	31,705196  	33,727748  	42,966432  	40,590722  	44,826627  	67,594649  	23,937760  	21,989569  	22,754072  	72,435983  	0,044773  	0,022687  	-2646,989051  	-9724,476235  	-0,013763  	-0,049990  	0,323166  	0,163750  	-4,265610  	9694,724737  	7232,031144  	1,048917  	-0,047943  
195,549000  	14,218131  	42,106895  	1256,818530  	-242,047242  	79,896740  	73,679350  	0,004300  	0,008541  	0,003963  	0,004043  	0,004347  	0,000001  	-0,000000  	22,558604  	18,476110  	20,082731  	23,236915  	32,241711  	29,754272  	31,699119  	33,724789  	42,963997  	40,587172  	44,824077  	67,592101  	23,931061  	21,986698  	22,749511  	72,432793  	0,041539  	0,021048  	-2456,322840  	-35501,223638  	-0,021689  	-0,049987  	0,300923  	0,152480  	-3,974394  	9768,492976  	7380,363532  	1,070431  	-0,047940  
196,548000  	14,215558  	42,110848  	57,725912  	956,927186  	79,893429  	73,679786  	0,004300  	0,008529  	0,003963  	0,004083  	0,004392  	0,000001  	-0,000000  	22,567117  	18,485989  	20,086642  	23,239707  	32,249317  	29,758980  	31,701618  	33,729091  	42,967174  	40,591447  	44,831795  	67,592098  	23,926847  	21,991468  	22,747289  	72,438590  	0,073549  	0,037268  	-4350,161279  	21301,479300  	-0,021693  	-0,049992  	0,336594  	0,170555  	-4,442831  	9743,209558  	7391,400020  	1,072032  	-0,047945  
197,548000  	14,211822  	42,112887  	57,725912  	956,927186  	79,895241  	73,680722  	0,004292  	0,008526  	0,003964  	0,004073  	0,004364  	0,000001  	-0,000000  	22,566384  	18,493835  	20,087568  	23,240834  	32,255777  	29,752952  	31,707950  	33,728386  	42,967791  	40,599658  	44,838331  	67,594062  	23,927468  	21,996466  	22,752506  	72,442951  	0,065519  	0,033199  	-3875,968174  	21301,463699  	-0,021693  	-0,049992  	0,314576  	0,159398  	-4,152789  	9736,323985  	7208,821331  	1,045551  	-0,047945  
198,551000  	14,203429  	42,112022  	657,272221  	357,439972  	79,895178  	73,687207  	0,004300  	0,008521  	0,003962  	0,004061  	0,004379  	-0,000000  	-0,000000  	22,561714  	18,484213  	20,087656  	23,237835  	32,251831  	29,747965  	31,698462  	33,726111  	42,961015  	40,600217  	44,832647  	67,596863  	23,926218  	21,998360  	22,753326  	72,432360  	0,055919  	0,028334  	-3308,959042  	-7103,587828  	-0,021695  	-0,050000  	0,326466  	0,165423  	-4,305222  	9725,772426  	7395,580188  	1,072638  	-0,047952  
199,549000  	14,200397  	42,109984  	657,272221  	357,439972  	79,896771  	73,693537  	0,004293  	0,008527  	0,003962  	0,004071  	0,004338  	0,000000  	-0,000000  	22,559576  	18,477586  	20,092754  	23,234935  	32,252420  	29,748844  	31,695021  	33,729609  	42,963014  	40,596218  	44,826545  	67,597496  	23,920720  	22,007784  	22,747656  	72,426762  	0,064269  	0,032565  	-3803,201494  	-7103,206528  	-0,021694  	-0,049997  	0,293624  	0,148781  	-3,869161  	9738,337377  	7239,014566  	1,049930  	-0,047949  
200,550000  	14,200642  	42,112578  	1256,818530  	956,927186  	79,895022  	73,692415  	0,004298  	0,008543  	0,003960  	0,004083  	0,004338  	-0,000001  	-0,000000  	22,560549  	18,483462  	20,094850  	23,236655  	32,256545  	29,751281  	31,705888  	33,736290  	42,970294  	40,591290  	44,829809  	67,596065  	23,919984  	22,012301  	22,752539  	72,430488  	0,073924  	0,037458  	-4374,918925  	-4421,420243  	-0,012273  	-0,050010  	0,293833  	0,148888  	-3,871535  	9772,342191  	7337,573306  	1,064225  	-0,047960  
201,549000  	14,202449  	42,112794  	57,725912  	57,696365  	79,892835  	73,682686  	0,004292  	0,008540  	0,003960  	0,004115  	0,004335  	-0,000000  	-0,000000  	22,560657  	18,477678  	20,078220  	23,235947  	32,245836  	29,753252  	31,698798  	33,733584  	42,967683  	40,589202  	44,830326  	67,591220  	23,914517  	22,007361  	22,753168  	72,430811  	0,099790  	0,050564  	-5905,393415  	-1,525113  	-0,051182  	-0,050003  	0,291249  	0,147578  	-3,842148  	9767,027855  	7207,811594  	1,045405  	-0,047954  
202,550000  	14,207350  	42,113906  	1256,818530  	657,183579  	79,893147  	73,693599  	0,004298  	0,008541  	0,003962  	0,004066  	0,004334  	-0,000000  	-0,000000  	22,559197  	18,483450  	20,082606  	23,228455  	32,249733  	29,745188  	31,692564  	33,723695  	42,960380  	40,587776  	44,822597  	67,590029  	23,905587  	22,003578  	22,756654  	72,426667  	0,060248  	0,030528  	-3564,891969  	-9726,455569  	-0,013766  	-0,050001  	0,290743  	0,147322  	-3,828928  	9768,123689  	7354,929474  	1,066742  	-0,047953  
203,548000  	14,207993  	42,118168  	1256,818530  	657,183579  	79,900333  	73,687924  	0,004289  	0,008530  	0,003962  	0,004051  	0,004336  	0,000001  	-0,000000  	22,566892  	18,484956  	20,086779  	23,228366  	32,251377  	29,738550  	31,702495  	33,718519  	42,967236  	40,588171  	44,825108  	67,587531  	23,901866  	21,998528  	22,756314  	72,431224  	0,048079  	0,024362  	-2845,182375  	-9724,244043  	-0,013762  	-0,049989  	0,292084  	0,148001  	-3,854566  	9743,619877  	7145,568057  	1,036377  	-0,047942  
204,549000  	14,207074  	42,122986  	1256,818530  	1256,670793  	79,906894  	73,684058  	0,004292  	0,008530  	0,003962  	0,004039  	0,004373  	-0,000000  	-0,000000  	22,565406  	18,483947  	20,092727  	23,236959  	32,259494  	29,754746  	31,704396  	33,724466  	42,966889  	40,592698  	44,825394  	67,592471  	23,892146  	21,992418  	22,752241  	72,423916  	0,038585  	0,019551  	-2283,850197  	-1,993736  	-0,011069  	-0,050005  	0,321502  	0,162907  	-4,249897  	9744,707929  	7223,804971  	1,047724  	-0,047956  
205,549000  	14,211485  	42,124561  	1256,818530  	956,927186  	79,907831  	73,697653  	0,004298  	0,008537  	0,003961  	0,004070  	0,004370  	-0,000001  	-0,000000  	22,568419  	18,490450  	20,089627  	23,243211  	32,266766  	29,763581  	31,710079  	33,737437  	42,981252  	40,595932  	44,835405  	67,593606  	23,891127  	21,991703  	22,760818  	72,433375  	0,063674  	0,032264  	-3768,497714  	-4421,143785  	-0,012272  	-0,050006  	0,319656  	0,161972  	-4,216915  	9760,140159  	7352,684046  	1,066417  	-0,047957  
206,548000  	14,215834  	42,123387  	1256,818530  	357,439972  	79,908518  	73,685056  	0,004291  	0,008557  	0,003963  	0,004077  	0,004340  	0,000000  	-0,000000  	22,568482  	18,490402  	20,095811  	23,237217  	32,255507  	29,749222  	31,713497  	33,737743  	42,980393  	40,605729  	44,831269  	67,600123  	23,898272  	21,981227  	22,763218  	72,434463  	0,068671  	0,034796  	-4063,378238  	-16232,621598  	-0,015673  	-0,049994  	0,295616  	0,149791  	-3,908112  	9803,472651  	7199,373588  	1,044181  	-0,047947  
207,549000  	14,216477  	42,120700  	357,499067  	1256,670793  	79,906862  	73,687332  	0,004299  	0,008524  	0,003961  	0,004082  	0,004389  	0,000000  	-0,000000  	22,560736  	18,483603  	20,102510  	23,248970  	32,261554  	29,750189  	31,711565  	33,735427  	42,966987  	40,592815  	44,835442  	67,592855  	23,899801  	21,966393  	22,768456  	72,423539  	0,073017  	0,036998  	-4320,053315  	16229,682737  	-0,015674  	-0,049995  	0,334717  	0,169604  	-4,422244  	9731,042192  	7368,211390  	1,068669  	-0,047947  
208,549000  	14,215620  	42,123665  	957,045375  	1256,670793  	79,907987  	73,703796  	0,004293  	0,008513  	0,003966  	0,004072  	0,004348  	0,000001  	-0,000000  	22,557233  	18,477861  	20,101288  	23,247086  	32,256607  	29,751780  	31,699290  	33,732024  	42,962523  	40,585723  	44,823276  	67,589214  	23,883191  	21,929770  	22,748944  	72,416033  	0,064683  	0,032776  	-3827,525027  	4416,241112  	-0,012269  	-0,049993  	0,301684  	0,152865  	-3,975989  	9707,235215  	7247,770321  	1,051200  	-0,047946  
209,550000  	14,212679  	42,128390  	57,725912  	1256,670793  	79,902676  	73,698776  	0,004296  	0,008542  	0,003963  	0,004065  	0,004405  	0,000000  	-0,000000  	22,563535  	18,487201  	20,101766  	23,244790  	32,256392  	29,764699  	31,706685  	33,736385  	42,980235  	40,594376  	44,832737  	67,595430  	23,898143  	21,926476  	22,761600  	72,432986  	0,059658  	0,030229  	-3531,148982  	24489,893607  	-0,018200  	-0,049997  	0,346877  	0,175765  	-4,571391  	9771,001580  	7299,972984  	1,058772  	-0,047949  
210,549000  	14,213169  	42,124128  	657,272221  	1256,670793  	79,900926  	73,699524  	0,004292  	0,008534  	0,003964  	0,004074  	0,004352  	-0,000000  	-0,000000  	22,569061  	18,481611  	20,087614  	23,237109  	32,250755  	29,759827  	31,702042  	33,722629  	42,971602  	40,589436  	44,826292  	67,590134  	23,892018  	21,919674  	22,756578  	72,425331  	0,066506  	0,033699  	-3935,783073  	9723,019779  	-0,013766  	-0,050003  	0,305402  	0,154750  	-4,023186  	9753,974059  	7217,146360  	1,046759  	-0,047954  
211,549000  	14,218315  	42,119774  	657,272221  	1256,670793  	79,901551  	73,697061  	0,004299  	0,008531  	0,003963  	0,004030  	0,004378  	0,000001  	-0,000000  	22,561298  	18,475705  	20,091065  	23,230617  	32,250090  	29,747671  	31,700249  	33,725626  	42,961423  	40,585875  	44,823931  	67,576515  	23,883045  	21,922787  	22,758699  	72,415946  	0,031165  	0,015792  	-1843,696756  	9719,713343  	-0,013762  	-0,049984  	0,325347  	0,164856  	-4,288063  	9747,461310  	7368,246696  	1,068674  	-0,047937  
212,548000  	14,227749  	42,118662  	57,725912  	1256,670793  	79,896615  	73,694691  	0,004295  	0,008549  	0,003964  	0,004038  	0,004315  	0,000001  	-0,000000  	22,557186  	18,486888  	20,092477  	23,235814  	32,254528  	29,749299  	31,706202  	33,737653  	42,968397  	40,587025  	44,825195  	67,590967  	23,882745  	21,906443  	22,758343  	72,422099  	0,037079  	0,018788  	-2192,747602  	24484,608241  	-0,018196  	-0,049985  	0,275908  	0,139805  	-3,634955  	9785,521205  	7276,826720  	1,055414  	-0,047939  
213,549000  	14,240491  	42,120330  	1256,818530  	1256,670793  	79,893491  	73,686958  	0,004295  	0,008520  	0,003962  	0,004048  	0,004385  	0,000001  	-0,000000  	22,564366  	18,487775  	20,095220  	23,225797  	32,255399  	29,757451  	31,704025  	33,731056  	42,964576  	40,588243  	44,824483  	67,595208  	23,880911  	21,902858  	22,767241  	72,425156  	0,045503  	0,023057  	-2689,834009  	-1,993272  	-0,011067  	-0,049992  	0,330816  	0,167627  	-4,361564  	9722,518881  	7279,644097  	1,055823  	-0,047945  
214,548000  	14,248822  	42,122492  	1256,818530  	1256,670793  	79,896740  	73,696749  	0,004301  	0,008520  	0,003965  	0,004036  	0,004361  	0,000001  	-0,000000  	22,563585  	18,482054  	20,082902  	23,225932  	32,249375  	29,750466  	31,698116  	33,726907  	42,965616  	40,584593  	44,824230  	67,589798  	23,873264  	21,894014  	22,763692  	72,426911  	0,035499  	0,017987  	-2097,962081  	-1,992926  	-0,011065  	-0,049982  	0,312051  	0,158118  	-4,109835  	9723,165487  	7404,922014  	1,073993  	-0,047936  
215,551000  	14,249189  	42,124623  	357,499067  	357,439972  	79,895147  	73,695751  	0,004292  	0,008528  	0,003963  	0,004065  	0,004395  	0,000001  	-0,000000  	22,563609  	18,489706  	20,098434  	23,239546  	32,252108  	29,761145  	31,708161  	33,732591  	42,971527  	40,597354  	44,828850  	67,591570  	23,879331  	21,912072  	22,772907  	72,436594  	0,059286  	0,030041  	-3504,039400  	-1,684977  	-0,026848  	-0,049991  	0,339385  	0,171969  	-4,469412  	9739,377323  	7222,491607  	1,047534  	-0,047944  
216,549000  	14,242206  	42,128576  	-242,047242  	956,927186  	79,895397  	73,689016  	0,004298  	0,008538  	0,003963  	0,004081  	0,004353  	0,000001  	-0,000000  	22,560457  	18,493056  	20,102243  	23,238077  	32,264891  	29,756911  	31,715707  	33,730533  	42,975747  	40,599619  	44,827406  	67,588423  	23,878524  	21,908321  	22,769603  	72,431838  	0,072186  	0,036577  	-4268,123403  	34183,764932  	-0,026846  	-0,049984  	0,306169  	0,155138  	-4,036519  	9762,113934  	7342,290116  	1,064909  	-0,047938  
217,549000  	14,242420  	42,128699  	57,725912  	1256,670793  	79,904051  	73,691074  	0,004295  	0,008531  	0,003962  	0,004065  	0,004371  	0,000000  	-0,000000  	22,561324  	18,487217  	20,099045  	23,231016  	32,263406  	29,754126  	31,710039  	33,731584  	42,975628  	40,591533  	44,824396  	67,592255  	23,873757  	21,907812  	22,769353  	72,436267  	0,058996  	0,029894  	-3488,220287  	24489,136762  	-0,018200  	-0,049996  	0,319864  	0,162077  	-4,221554  	9746,912332  	7286,246219  	1,056781  	-0,047948  
218,549000  	14,250445  	42,125302  	1256,818530  	1256,670793  	79,912923  	73,692633  	0,004298  	0,008536  	0,003963  	0,004061  	0,004353  	-0,000001  	-0,000000  	22,570132  	18,485220  	20,097008  	23,240221  	32,260584  	29,761333  	31,708798  	33,734696  	42,973052  	40,595790  	44,823007  	67,592603  	23,870716  	21,911279  	22,768010  	72,427091  	0,056087  	0,028420  	-3314,880097  	-1,994019  	-0,011071  	-0,050013  	0,306110  	0,155108  	-4,044785  	9757,976789  	7352,366297  	1,066371  	-0,047962  
219,548000  	14,254305  	42,124839  	357,499067  	1256,670793  	79,908831  	73,688860  	0,004291  	0,008531  	0,003965  	0,004025  	0,004367  	0,000001  	-0,000000  	22,574065  	18,493313  	20,096715  	23,246776  	32,254192  	29,764964  	31,713275  	33,731305  	42,978782  	40,602241  	44,829561  	67,593545  	23,874265  	21,914028  	22,771257  	72,427119  	0,027055  	0,013709  	-1598,785261  	16228,836459  	-0,015673  	-0,049992  	0,316726  	0,160488  	-4,184851  	9746,375380  	7196,259646  	1,043729  	-0,047945  
220,550000  	14,255836  	42,121874  	957,045375  	57,696365  	79,901520  	73,697341  	0,004298  	0,008529  	0,003963  	0,004070  	0,004388  	-0,000000  	-0,000000  	22,572361  	18,492828  	20,094270  	23,243082  	32,250327  	29,765420  	31,710082  	33,732186  	42,975626  	40,599333  	44,832878  	67,591772  	23,878218  	21,920116  	22,770739  	72,428032  	0,063389  	0,032120  	-3745,252660  	-21308,472467  	-0,021697  	-0,050004  	0,333477  	0,168975  	-4,394993  	9742,877766  	7343,271608  	1,065052  	-0,047955  
221,548000  	14,254488  	42,120546  	1256,818530  	57,696365  	79,903082  	73,700958  	0,004296  	0,008525  	0,003962  	0,004059  	0,004362  	0,000001  	-0,000000  	22,572835  	18,491003  	20,100395  	23,245032  	32,259774  	29,763567  	31,712670  	33,738746  	42,976234  	40,602289  	44,830089  	67,589418  	23,884648  	21,931295  	22,776399  	72,427865  	0,054418  	0,027574  	-3215,237530  	-24489,960806  	-0,018197  	-0,049992  	0,312865  	0,158531  	-4,121984  	9733,581924  	7308,064997  	1,059945  	-0,047945  
222,551000  	14,255346  	42,121905  	1256,818530  	1256,670793  	79,911830  	73,702829  	0,004294  	0,008554  	0,003962  	0,004069  	0,004370  	0,000000  	-0,000000  	22,573604  	18,493668  	20,101898  	23,244535  	32,261591  	29,759261  	31,715083  	33,734740  	42,983042  	40,603218  	44,823914  	67,587399  	23,885780  	21,941088  	22,777865  	72,425310  	0,062903  	0,031873  	-3716,612073  	-1,993425  	-0,011068  	-0,049996  	0,319347  	0,161815  	-4,212038  	9797,279667  	7271,135479  	1,054589  	-0,047948  
223,549000  	14,254978  	42,124684  	357,499067  	1256,670793  	79,914079  	73,699368  	0,004301  	0,008543  	0,003962  	0,004080  	0,004379  	0,000000  	-0,000000  	22,568402  	18,495350  	20,097098  	23,239812  	32,253408  	29,756279  	31,707476  	33,730586  	42,980628  	40,596670  	44,821886  	67,587249  	23,881571  	21,950777  	22,772349  	72,425348  	0,071312  	0,036134  	-4213,931337  	16230,672835  	-0,015675  	-0,049999  	0,326106  	0,165240  	-4,305141  	9771,889425  	7407,358091  	1,074346  	-0,047950  
224,548000  	14,250323  	42,131602  	-242,047242  	57,696365  	79,912080  	73,701925  	0,004293  	0,008536  	0,003962  	0,004101  	0,004371  	-0,000000  	-0,000000  	22,562386  	18,491615  	20,099352  	23,236608  	32,254922  	29,756807  	31,706921  	33,736380  	42,974649  	40,594008  	44,824039  	67,590864  	23,878612  	21,965982  	22,769090  	72,427081  	0,088509  	0,044848  	-5232,292171  	27701,784316  	-0,093576  	-0,050005  	0,320446  	0,162372  	-4,227326  	9757,730598  	7246,026231  	1,050947  	-0,047956  
225,549000  	14,246188  	42,135154  	957,045375  	956,927186  	79,910674  	73,698370  	0,004296  	0,008543  	0,003961  	0,004023  	0,004345  	0,000000  	-0,000000  	22,568400  	18,487155  	20,098326  	23,235336  	32,263474  	29,764241  	31,712718  	33,738936  	42,979008  	40,599167  	44,819205  	67,591782  	23,878838  	21,982778  	22,763881  	72,421902  	0,025269  	0,012804  	-1494,240251  	-1,917037  	-0,013765  	-0,049999  	0,299246  	0,151630  	-3,949014  	9773,046099  	7299,471647  	1,058699  	-0,047950  
226,549000  	14,241226  	42,140034  	357,499067  	-242,047242  	79,910111  	73,700303  	0,004295  	0,008542  	0,003962  	0,004110  	0,004336  	-0,000001  	-0,000000  	22,579667  	18,496234  	20,098629  	23,243770  	32,268465  	29,769114  	31,712521  	33,741505  	42,990631  	40,608267  	44,816945  	67,593346  	23,884810  	22,000306  	22,771708  	72,428979  	0,095921  	0,048604  	-5674,056568  	-30951,183123  	-0,051191  	-0,050015  	0,292026  	0,147972  	-3,852186  	9770,180943  	7285,709576  	1,056703  	-0,047964  
227,548000  	14,238193  	42,139663  	1256,818530  	657,183579  	79,907019  	73,702205  	0,004297  	0,008510  	0,003963  	0,004056  	0,004338  	0,000000  	-0,000000  	22,574657  	18,497656  	20,101977  	23,245712  	32,262722  	29,760032  	31,710607  	33,740253  	42,982393  	40,601476  	44,820249  	67,596352  	23,874545  	22,014040  	22,778850  	72,429656  	0,052165  	0,026432  	-3086,031704  	-9725,253296  	-0,013764  	-0,049994  	0,294109  	0,149027  	-3,876543  	9701,862161  	7318,762554  	1,061497  	-0,047947  
228,550000  	14,238071  	42,135154  	1256,818530  	1256,670793  	79,904832  	73,700522  	0,004292  	0,008535  	0,003963  	0,004099  	0,004351  	-0,000000  	-0,000000  	22,565218  	18,487683  	20,097917  	23,249204  	32,263491  	29,763606  	31,710049  	33,733993  	42,970575  	40,600002  	44,815730  	67,591187  	23,863235  	22,018308  	22,777180  	72,423259  	0,086885  	0,044025  	-5139,248258  	-1,993744  	-0,011069  	-0,050005  	0,304260  	0,154171  	-4,010013  	9754,508181  	7225,139517  	1,047918  	-0,047956  
229,548000  	14,237366  	42,136235  	1256,818530  	956,927186  	79,903207  	73,699493  	0,004295  	0,008539  	0,003962  	0,004040  	0,004336  	0,000001  	-0,000000  	22,573348  	18,490506  	20,097491  	23,239649  	32,263848  	29,769303  	31,716414  	33,739300  	42,975458  	40,596955  	44,818468  	67,583610  	23,865406  	22,037449  	22,779770  	72,426813  	0,039179  	0,019852  	-2317,572378  	-4420,007522  	-0,012269  	-0,049992  	0,292299  	0,148110  	-3,852013  	9763,658289  	7280,201923  	1,055904  	-0,047945  
230,551000  	14,238530  	42,135864  	1256,818530  	357,439972  	79,900520  	73,696125  	0,004299  	0,008528  	0,003960  	0,004099  	0,004357  	0,000001  	-0,000000  	22,583502  	18,500918  	20,101097  	23,240548  	32,259388  	29,768441  	31,713794  	33,740300  	42,984509  	40,597767  	44,827553  	67,580444  	23,880613  	22,049610  	22,785858  	72,429271  	0,086739  	0,043951  	-5130,619559  	-16232,171032  	-0,015673  	-0,049993  	0,309249  	0,156699  	-4,075828  	9739,740243  	7364,772638  	1,068170  	-0,047945  
231,549000  	14,241746  	42,138273  	357,499067  	357,439972  	79,894803  	73,696032  	0,004292  	0,008524  	0,003961  	0,004079  	0,004342  	-0,000000  	-0,000000  	22,574606  	18,495025  	20,105436  	23,249865  	32,260132  	29,767568  	31,712262  	33,735526  	42,983748  	40,602216  	44,826815  	67,599331  	23,876010  	22,046803  	22,781167  	72,430153  	0,070835  	0,035892  	-4189,770182  	-1,685289  	-0,026853  	-0,050002  	0,296922  	0,150452  	-3,909808  	9731,309607  	7211,433935  	1,045930  	-0,047953  
232,549000  	14,243952  	42,139015  	-242,047242  	-242,047242  	79,899739  	73,696530  	0,004300  	0,008545  	0,003961  	0,004052  	0,004388  	-0,000000  	-0,000000  	22,577745  	18,505301  	20,111280  	23,260849  	32,268018  	29,776932  	31,727678  	33,746219  	42,998293  	40,603331  	44,823991  	67,593351  	23,871617  	22,051450  	22,785867  	72,427865  	0,048939  	0,024798  	-2894,494620  	-0,000000  	-0,544480  	-0,050005  	0,333207  	0,168838  	-4,390742  	9777,055197  	7382,347699  	1,070719  	-0,047956  
233,548000  	14,242328  	42,144913  	57,725912  	956,927186  	79,905144  	73,705511  	0,004293  	0,008518  	0,003962  	0,004070  	0,004351  	-0,000000  	-0,000000  	22,577908  	18,512006  	20,108041  	23,256057  	32,279219  	29,778921  	31,725694  	33,753104  	42,989004  	40,611128  	44,834068  	67,594578  	23,877842  	22,043004  	22,789592  	72,435017  	0,063626  	0,032240  	-3764,206767  	21306,427965  	-0,021698  	-0,050005  	0,303923  	0,154000  	-4,002557  	9718,388811  	7249,415556  	1,051439  	-0,047956  
234,549000  	14,236019  	42,147446  	657,272221  	357,439972  	79,908581  	73,700335  	0,004297  	0,008544  	0,003962  	0,004094  	0,004352  	-0,000001  	-0,000000  	22,569542  	18,496708  	20,105476  	23,251725  	32,263268  	29,763778  	31,721580  	33,745081  	42,994986  	40,600973  	44,820999  	67,599503  	23,849007  	22,029441  	22,772045  	72,433924  	0,082950  	0,042031  	-4909,004942  	-7104,954888  	-0,021700  	-0,050011  	0,305281  	0,154688  	-4,026027  	9775,742884  	7318,543660  	1,061465  	-0,047961  
235,548000  	14,230505  	42,145963  	657,272221  	1256,670793  	79,910955  	73,703952  	0,004291  	0,008535  	0,003964  	0,004069  	0,004328  	0,000000  	-0,000000  	22,581220  	18,497756  	20,104285  	23,254695  	32,266443  	29,770096  	31,718490  	33,749624  	42,984064  	40,611171  	44,818894  	67,589137  	23,850094  	22,026136  	22,794396  	72,432516  	0,062579  	0,031709  	-3703,960206  	9721,841452  	-0,013765  	-0,049996  	0,285697  	0,144765  	-3,767006  	9755,814126  	7190,737871  	1,042928  	-0,047948  
236,549000  	14,227504  	42,145655  	1256,818530  	57,696365  	79,910830  	73,709564  	0,004297  	0,008531  	0,003963  	0,004072  	0,004366  	0,000000  	-0,000000  	22,577026  	18,499337  	20,110281  	23,250029  	32,263356  	29,771882  	31,713011  	33,739513  	42,985580  	40,599595  	44,820766  	67,589483  	23,846460  	22,002070  	22,782549  	72,423624  	0,065302  	0,033089  	-3865,517172  	-24493,268284  	-0,018200  	-0,050000  	0,315746  	0,159991  	-4,159363  	9745,840551  	7331,818515  	1,063390  	-0,047951  
237,547000  	14,221286  	42,140250  	1256,818530  	57,696365  	79,910674  	73,697684  	0,004290  	0,008520  	0,003962  	0,004048  	0,004329  	0,000000  	-0,000000  	22,595259  	18,512113  	20,108038  	23,259889  	32,281837  	29,767849  	31,720913  	33,754730  	42,995308  	40,615909  	44,832925  	67,604734  	23,869879  	22,010634  	22,785237  	72,438480  	0,045562  	0,023087  	-2697,090628  	-24492,931079  	-0,018200  	-0,049999  	0,286743  	0,145295  	-3,784444  	9723,698194  	7183,895671  	1,041936  	-0,047950  
238,553000  	14,219510  	42,133702  	657,272221  	1256,670793  	79,909924  	73,694566  	0,004294  	0,008537  	0,003962  	0,004065  	0,004378  	0,000001  	-0,000000  	22,578441  	18,501676  	20,103011  	23,261049  	32,269426  	29,767584  	31,718283  	33,742482  	42,994233  	40,602046  	44,822861  	67,605714  	23,863040  	21,997881  	22,790649  	72,427251  	0,059637  	0,030219  	-3529,696087  	9721,474782  	-0,013764  	-0,049994  	0,325280  	0,164822  	-4,294687  	9759,598963  	7269,207801  	1,054309  	-0,047946  
239,554000  	14,220428  	42,135092  	657,272221  	357,439972  	79,908206  	73,698183  	0,004298  	0,008532  	0,003961  	0,004076  	0,004369  	-0,000001  	-0,000000  	22,577077  	18,506125  	20,109478  	23,263340  	32,275134  	29,775680  	31,718196  	33,747853  	42,996756  	40,613058  	44,822565  	67,596151  	23,855700  	21,988142  	22,783468  	72,424111  	0,068131  	0,034522  	-4032,458695  	-7104,420652  	-0,021698  	-0,050007  	0,318299  	0,161284  	-4,198909  	9749,554643  	7352,874695  	1,066444  	-0,047957  
240,550000  	14,223063  	42,138860  	1256,818530  	-242,047242  	79,910518  	73,694815  	0,004290  	0,008535  	0,003962  	0,004073  	0,004385  	0,000000  	-0,000000  	22,589372  	18,514565  	20,129008  	23,268955  	32,285211  	29,790686  	31,726756  	33,762967  	43,002198  	40,623931  	44,836527  	67,604506  	23,867418  	21,977344  	22,792092  	72,440803  	0,065546  	0,033213  	-3879,629270  	-35509,253534  	-0,021694  	-0,049999  	0,331014  	0,167727  	-4,370630  	9755,804930  	7167,732829  	1,039592  	-0,047951  
241,549000  	14,224655  	42,141176  	957,045375  	956,927186  	79,912767  	73,699867  	0,004298  	0,008529  	0,003962  	0,004068  	0,004361  	-0,000001  	-0,000000  	22,585884  	18,509683  	20,115455  	23,265549  	32,280266  	29,781131  	31,728697  	33,764004  	43,000014  	40,615350  	44,831165  	67,596143  	23,861150  	21,965514  	22,797946  	72,436527  	0,061784  	0,031306  	-3657,036682  	-1,917463  	-0,013768  	-0,050011  	0,312513  	0,158353  	-4,124500  	9742,706564  	7338,787814  	1,064401  	-0,047961  
242,552000  	14,227596  	42,143400  	357,499067  	357,439972  	79,915016  	73,706477  	0,004294  	0,008517  	0,003962  	0,004056  	0,004359  	-0,000000  	-0,000000  	22,585378  	18,512626  	20,115861  	23,262849  	32,276324  	29,772472  	31,725885  	33,760068  	42,994803  	40,609965  	44,833354  	67,593738  	23,851578  	21,952594  	22,792913  	72,431976  	0,051895  	0,026296  	-3071,644153  	-1,685252  	-0,026852  	-0,050000  	0,310724  	0,157446  	-4,098002  	9716,323068  	7263,608354  	1,053497  	-0,047952  
243,550000  	14,236876  	42,143585  	1256,818530  	1256,670793  	79,917516  	73,709252  	0,004295  	0,008533  	0,003963  	0,004092  	0,004361  	0,000000  	-0,000000  	22,586123  	18,507482  	20,112690  	23,261239  	32,278897  	29,770990  	31,719812  	33,750083  	42,990998  	40,610690  	44,827647  	67,594510  	23,848928  	21,942197  	22,789513  	72,434815  	0,081324  	0,041207  	-4811,951253  	-1,993503  	-0,011068  	-0,049998  	0,312280  	0,158235  	-4,118348  	9750,598833  	7282,412045  	1,056225  	-0,047950  
244,549000  	14,246249  	42,147044  	1256,818530  	1256,670793  	79,917141  	73,704139  	0,004290  	0,008547  	0,003964  	0,004025  	0,004337  	0,000001  	-0,000000  	22,582604  	18,500982  	20,113319  	23,259056  	32,275560  	29,776826  	31,724757  	33,745799  	42,991687  	40,608761  	44,826250  	67,589977  	23,848023  	21,930558  	22,790973  	72,433221  	0,026515  	0,013435  	-1568,554639  	-1,993315  	-0,011067  	-0,049993  	0,292958  	0,148444  	-3,866474  	9781,950724  	7171,199826  	1,040095  	-0,047946  
245,551000  	14,253600  	42,146365  	-242,047242  	1256,670793  	79,919609  	73,704575  	0,004296  	0,008529  	0,003962  	0,004090  	0,004381  	-0,000000  	-0,000000  	22,584484  	18,502145  	20,105206  	23,252657  	32,274960  	29,769297  	31,726539  	33,746599  	42,995040  	40,608574  	44,823891  	67,588209  	23,848583  	21,924014  	22,796997  	72,423264  	0,079800  	0,040435  	-4719,411402  	35510,673804  	-0,021698  	-0,050003  	0,328082  	0,166241  	-4,331455  	9742,988128  	7314,617692  	1,060896  	-0,047954  
246,549000  	14,260094  	42,142041  	-242,047242  	657,183579  	79,913486  	73,707007  	0,004293  	0,008526  	0,003962  	0,004057  	0,004354  	-0,000000  	-0,000000  	22,589356  	18,508723  	20,112255  	23,263549  	32,279896  	29,770959  	31,730582  	33,756470  	42,996044  	40,614837  	44,828365  	67,593706  	23,862877  	21,915629  	22,801986  	72,429151  	0,052595  	0,026650  	-3109,292766  	32746,316138  	-0,035228  	-0,050005  	0,306972  	0,155545  	-4,047179  	9736,733596  	7248,314026  	1,051279  	-0,047955  
247,549000  	14,261288  	42,140929  	-242,047242  	657,183579  	79,905394  	73,701239  	0,004293  	0,008536  	0,003961  	0,004090  	0,004375  	-0,000000  	-0,000000  	22,591498  	18,508246  	20,122854  	23,268824  	32,284302  	29,776209  	31,728176  	33,758975  	42,996388  	40,613617  	44,825118  	67,596006  	23,865110  	21,905088  	22,795947  	72,434027  	0,079711  	0,040390  	-4711,909727  	32744,251630  	-0,035226  	-0,050001  	0,323063  	0,163698  	-4,257732  	9757,473088  	7230,590681  	1,048709  	-0,047952  
248,548000  	14,259879  	42,143524  	957,045375  	1256,670793  	79,907331  	73,703546  	0,004297  	0,008528  	0,003962  	0,004067  	0,004318  	-0,000000  	-0,000000  	22,588951  	18,507806  	20,122851  	23,263498  	32,280780  	29,776986  	31,726531  	33,758753  	42,999652  	40,615032  	44,828273  	67,592352  	23,861010  	21,896208  	22,797501  	72,433706  	0,061044  	0,030932  	-3609,017150  	4416,944589  	-0,012271  	-0,050002  	0,278134  	0,140933  	-3,665383  	9741,252055  	7330,766412  	1,063238  	-0,047953  
249,549000  	14,260829  	42,143462  	957,045375  	1256,670793  	79,909237  	73,698682  	0,004291  	0,008522  	0,003961  	0,004087  	0,004331  	-0,000001  	-0,000000  	22,585295  	18,509565  	20,118231  	23,264214  	32,272730  	29,780886  	31,725161  	33,760303  	42,997923  	40,614955  	44,832957  	67,590936  	23,865525  	21,893477  	22,806356  	72,434304  	0,077444  	0,039241  	-4578,391257  	4417,604078  	-0,012273  	-0,050011  	0,288567  	0,146219  	-3,807015  	9726,392856  	7201,739054  	1,044524  	-0,047961  
250,547000  	14,265607  	42,143029  	-242,047242  	657,183579  	79,910799  	73,705667  	0,004298  	0,008509  	0,003960  	0,004074  	0,004346  	-0,000000  	-0,000000  	22,585071  	18,506817  	20,113684  	23,262544  	32,270744  	29,782923  	31,720887  	33,758174  	42,995448  	40,612529  	44,830265  	67,594509  	23,867824  	21,891339  	22,805348  	72,429694  	0,066977  	0,033938  	-3958,887648  	32746,567907  	-0,035228  	-0,050005  	0,299952  	0,151988  	-3,953766  	9700,316391  	7354,760007  	1,066718  	-0,047956  
251,548000  	14,270385  	42,145902  	-242,047242  	-242,047242  	79,918172  	73,714335  	0,004294  	0,008517  	0,003963  	0,004062  	0,004350  	0,000000  	-0,000000  	22,584850  	18,511187  	20,122093  	23,261698  	32,273012  	29,785486  	31,727901  	33,762305  	43,003248  	40,625801  	44,839722  	67,596440  	23,871367  	21,886229  	22,807286  	72,431167  	0,056828  	0,028795  	-3358,776534  	-0,000000  	-0,544383  	-0,049995  	0,303554  	0,153813  	-4,000419  	9717,145828  	7252,155260  	1,051836  	-0,047947  
252,548000  	14,269160  	42,147137  	957,045375  	-242,047242  	79,922483  	73,700241  	0,004297  	0,008538  	0,003961  	0,004091  	0,004348  	-0,000001  	-0,000000  	22,587850  	18,520507  	20,128684  	23,265315  	32,275718  	29,785086  	31,730802  	33,762006  	43,006800  	40,625577  	44,837172  	67,594851  	23,873275  	21,888436  	22,809269  	72,434448  	0,080726  	0,040905  	-4771,660281  	-34198,691916  	-0,026854  	-0,050008  	0,301960  	0,153005  	-3,991208  	9762,822088  	7326,437962  	1,062610  	-0,047958  
253,548000  	14,257490  	42,146210  	57,725912  	956,927186  	79,918078  	73,698152  	0,004292  	0,008518  	0,003962  	0,004058  	0,004341  	0,000001  	-0,000000  	22,593728  	18,519808  	20,119577  	23,265566  	32,280356  	29,776046  	31,731451  	33,754065  	43,002300  	40,615366  	44,833622  	67,596977  	23,873019  	21,884701  	22,806221  	72,434344  	0,053313  	0,027014  	-3152,481815  	21300,752289  	-0,021693  	-0,049991  	0,296551  	0,150264  	-3,918251  	9718,436917  	7226,664713  	1,048139  	-0,047943  
254,557000  	14,249526  	42,144666  	1256,818530  	-242,047242  	79,915266  	73,697279  	0,004298  	0,008540  	0,003960  	0,004075  	0,004363  	-0,000000  	-0,000000  	22,582298  	18,513516  	20,119500  	23,268095  	32,278466  	29,774226  	31,725783  	33,751629  	42,999338  	40,620966  	44,834753  	67,595299  	23,867355  	21,877306  	22,813975  	72,440724  	0,067579  	0,034243  	-3996,971331  	-35511,253207  	-0,021696  	-0,050003  	0,313833  	0,159021  	-4,145301  	9766,063606  	7345,728869  	1,065408  	-0,047954  
255,551000  	14,248516  	42,142350  	357,499067  	657,183579  	79,915422  	73,698214  	0,004293  	0,008510  	0,003962  	0,004083  	0,004336  	-0,000001  	-0,000000  	22,581567  	18,511883  	20,121641  	23,268769  	32,275588  	29,772508  	31,718834  	33,755462  	42,999111  	40,614063  	44,842768  	67,594373  	23,852260  	21,863627  	22,805207  	72,439986  	0,074184  	0,037590  	-4387,439614  	7101,817533  	-0,021701  	-0,050013  	0,292601  	0,148263  	-3,864381  	9701,257295  	7237,807119  	1,049755  	-0,047963  
256,548000  	14,250292  	42,146180  	-242,047242  	1256,670793  	79,917297  	73,702330  	0,004293  	0,008538  	0,003961  	0,004080  	0,004374  	0,000000  	-0,000000  	22,594501  	18,521187  	20,133147  	23,278137  	32,288543  	29,786384  	31,734188  	33,763531  	43,010816  	40,620517  	44,845337  	67,598668  	23,854361  	21,869507  	22,809677  	72,439981  	0,071458  	0,036208  	-4226,535125  	35508,882191  	-0,021697  	-0,050000  	0,322781  	0,163555  	-4,261425  	9762,470487  	7244,705807  	1,050756  	-0,047951  
257,548000  	14,254335  	42,145655  	1256,818530  	1256,670793  	79,917641  	73,708099  	0,004298  	0,008514  	0,003960  	0,004096  	0,004374  	-0,000000  	-0,000000  	22,599207  	18,514998  	20,128517  	23,267504  	32,286603  	29,791390  	31,732639  	33,767441  	43,006581  	40,634034  	44,831858  	67,594373  	23,860711  	21,862212  	22,803691  	72,440040  	0,084814  	0,042976  	-5015,689604  	-1,993687  	-0,011069  	-0,050004  	0,322253  	0,163288  	-4,250750  	9710,640153  	7350,375068  	1,066082  	-0,047954  
258,549000  	14,261258  	42,146705  	657,272221  	1256,670793  	79,914079  	73,704918  	0,004289  	0,008545  	0,003962  	0,004091  	0,004354  	0,000001  	-0,000000  	22,597357  	18,518170  	20,132414  	23,273035  	32,284996  	29,787862  	31,729850  	33,770173  	43,008891  	40,634330  	44,844210  	67,605059  	23,861958  	21,869401  	22,816809  	72,441910  	0,080162  	0,040618  	-4739,547785  	9720,944357  	-0,013763  	-0,049991  	0,306793  	0,155454  	-4,046563  	9776,595357  	7163,128996  	1,038924  	-0,047943  
259,548000  	14,269344  	42,151059  	657,272221  	357,439972  	79,909330  	73,705355  	0,004297  	0,008536  	0,003962  	0,004058  	0,004356  	-0,000000  	-0,000000  	22,590955  	18,520542  	20,127430  	23,270884  	32,286738  	29,783128  	31,734128  	33,766405  	42,994100  	40,627638  	44,836725  	67,596326  	23,845518  	21,877108  	22,815700  	72,440255  	0,053622  	0,027171  	-3169,983105  	-7104,307771  	-0,021698  	-0,050006  	0,308410  	0,156274  	-4,064504  	9756,522987  	7334,911274  	1,063839  	-0,047957  
260,548000  	14,273326  	42,156866  	57,725912  	956,927186  	79,906519  	73,706228  	0,004295  	0,008534  	0,003963  	0,004037  	0,004328  	0,000001  	-0,000000  	22,589137  	18,524953  	20,130836  	23,280712  	32,288347  	29,784849  	31,749488  	33,772183  	43,010069  	40,622906  	44,833625  	67,600786  	23,845019  	21,884824  	22,826294  	72,436548  	0,036852  	0,018673  	-2178,742143  	21299,033049  	-0,021691  	-0,049986  	0,285752  	0,144793  	-3,763662  	9752,182805  	7274,341216  	1,055054  	-0,047939  
261,550000  	14,274888  	42,156711  	1256,818530  	57,696365  	79,912580  	73,709408  	0,004300  	0,008523  	0,003963  	0,004074  	0,004381  	0,000001  	-0,000000  	22,597529  	18,515745  	20,127106  	23,273989  	32,291302  	29,786986  	31,741994  	33,766213  	43,010272  	40,622201  	44,829822  	67,599266  	23,842298  	21,893200  	22,813170  	72,438610  	0,066820  	0,033858  	-3950,178799  	-24489,589521  	-0,018197  	-0,049991  	0,327642  	0,166019  	-4,317397  	9730,527879  	7383,668123  	1,070911  	-0,047944  
262,549000  	14,273601  	42,154240  	1256,818530  	1256,670793  	79,916828  	73,710780  	0,004292  	0,008551  	0,003963  	0,004104  	0,004346  	0,000003  	-0,000000  	22,603565  	18,524698  	20,130968  	23,279836  	32,288303  	29,796950  	31,737638  	33,769807  	43,016886  	40,635593  	44,844928  	67,609468  	23,846388  	21,911731  	22,823033  	72,458686  	0,090897  	0,046058  	-5373,349422  	-1,992399  	-0,011062  	-0,049967  	0,300076  	0,152051  	-3,955996  	9790,578737  	7212,627260  	1,046103  	-0,047924  
263,549000  	14,271488  	42,154704  	357,499067  	1256,670793  	79,915204  	73,698277  	0,004299  	0,008540  	0,003960  	0,004086  	0,004373  	0,000000  	-0,000000  	22,600672  	18,521275  	20,123710  	23,280970  	32,280421  	29,798466  	31,741297  	33,756317  	43,003634  	40,628034  	44,833637  	67,594403  	23,833773  	21,912250  	22,820639  	72,438691  	0,075929  	0,038474  	-4488,936043  	16230,039315  	-0,015675  	-0,049997  	0,321332  	0,162821  	-4,243628  	9766,556696  	7364,927982  	1,068192  	-0,047948  
264,549000  	14,267567  	42,154518  	957,045375  	57,696365  	79,915079  	73,704638  	0,004295  	0,008535  	0,003963  	0,004104  	0,004358  	0,000000  	-0,000000  	22,596331  	18,527069  	20,132987  	23,278948  	32,285525  	29,788055  	31,740018  	33,764928  	43,009979  	40,619860  	44,834546  	67,600299  	23,828345  	21,926223  	22,818719  	72,443527  	0,090559  	0,045887  	-5354,587917  	-21305,291037  	-0,021693  	-0,049996  	0,310164  	0,157163  	-4,091878  	9756,063855  	7293,243762  	1,057796  	-0,047948  
265,549000  	14,263769  	42,152171  	57,725912  	1256,670793  	79,916922  	73,706415  	0,004295  	0,008536  	0,003964  	0,004066  	0,004357  	0,000001  	-0,000000  	22,594225  	18,527516  	20,133475  	23,279351  	32,291231  	29,795690  	31,747308  	33,767908  	43,017971  	40,628687  	44,829389  	67,598372  	23,824557  	21,948047  	22,820336  	72,453363  	0,059796  	0,030299  	-3535,810710  	24486,335356  	-0,018198  	-0,049989  	0,309016  	0,156581  	-4,076779  	9756,909253  	7276,332444  	1,055343  	-0,047942  
266,549000  	14,265729  	42,155630  	1256,818530  	1256,670793  	79,918672  	73,707226  	0,004301  	0,008518  	0,003963  	0,004045  	0,004358  	0,000000  	-0,000000  	22,599512  	18,521168  	20,139039  	23,278912  	32,285554  	29,786797  	31,735939  	33,759787  	43,002402  	40,625454  	44,829817  	67,590663  	23,816940  	21,966654  	22,822363  	72,440575  	0,043305  	0,021943  	-2560,837882  	-1,993435  	-0,011068  	-0,049997  	0,309883  	0,157020  	-4,088826  	9719,493841  	7418,090953  	1,075903  	-0,047948  
267,548000  	14,272621  	42,155260  	357,499067  	1256,670793  	79,915266  	73,706727  	0,004294  	0,008524  	0,003964  	0,004041  	0,004386  	0,000001  	-0,000000  	22,603160  	18,518511  	20,136923  	23,286292  	32,284570  	29,788823  	31,740721  	33,760781  	43,014360  	40,625533  	44,830235  	67,605263  	23,816118  	21,985703  	22,817215  	72,438364  	0,040161  	0,020350  	-2374,281607  	16226,329716  	-0,015671  	-0,049984  	0,331729  	0,168090  	-4,375040  	9731,196415  	7266,249203  	1,053880  	-0,047937  
268,551000  	14,278318  	42,151306  	957,045375  	1256,670793  	79,914142  	73,702174  	0,004299  	0,008538  	0,003964  	0,004079  	0,004387  	0,000001  	-0,000000  	22,606884  	18,525699  	20,143375  	23,279420  	32,296394  	29,801395  	31,739957  	33,769898  	43,021007  	40,626518  	44,840300  	67,606990  	23,815516  	21,998143  	22,819218  	72,441164  	0,070611  	0,035779  	-4173,011985  	4415,432841  	-0,012267  	-0,049983  	0,332956  	0,168711  	-4,393637  	9762,810061  	7365,351647  	1,068254  	-0,047937  
269,548000  	14,276695  	42,150874  	1256,818530  	956,927186  	79,912486  	73,710063  	0,004294  	0,008535  	0,003963  	0,004087  	0,004377  	0,000001  	-0,000000  	22,608135  	18,519402  	20,136257  	23,278827  	32,291425  	29,796732  	31,736421  	33,764214  	43,018073  	40,626752  	44,830368  	67,603237  	23,815036  	21,999078  	22,825264  	72,440734  	0,076990  	0,039011  	-4550,175741  	-4419,437448  	-0,012267  	-0,049985  	0,324466  	0,164409  	-4,275037  	9754,918499  	7263,700148  	1,053511  	-0,047938  
270,549000  	14,275347  	42,152665  	1256,818530  	-242,047242  	79,912861  	73,706259  	0,004299  	0,008528  	0,003964  	0,004083  	0,004333  	0,000002  	-0,000000  	22,608129  	18,523775  	20,137629  	23,289288  	32,285379  	29,790701  	31,744850  	33,760372  	43,016731  	40,632028  	44,833201  	67,598871  	23,806027  	22,007076  	22,826305  	72,445036  	0,073727  	0,037358  	-4357,801859  	-35496,407781  	-0,021686  	-0,049979  	0,290130  	0,147011  	-3,825210  	9741,269034  	7379,332612  	1,070282  	-0,047934  
271,549000  	14,273601  	42,152295  	1256,818530  	657,183579  	79,921921  	73,704108  	0,004288  	0,008519  	0,003965  	0,004070  	0,004381  	0,000001  	-0,000000  	22,600415  	18,524997  	20,135270  	23,279450  	32,287142  	29,788384  	31,744352  	33,759359  	43,011507  	40,624665  	44,833158  	67,597996  	23,792821  	22,009059  	22,822212  	72,437878  	0,063336  	0,032093  	-3743,836180  	-9724,986916  	-0,013764  	-0,049993  	0,328099  	0,166250  	-4,333615  	9720,270617  	7135,251799  	1,034881  	-0,047945  
272,549000  	14,273540  	42,157916  	1256,818530  	1256,670793  	79,921233  	73,708972  	0,004297  	0,008540  	0,003965  	0,004073  	0,004327  	0,000001  	-0,000000  	22,597588  	18,527189  	20,132004  	23,276563  	32,293607  	29,791214  	31,747104  	33,771324  	43,019162  	40,624988  	44,835315  	67,598856  	23,798215  	22,022158  	22,830107  	72,441010  	0,066011  	0,033448  	-3902,727222  	-1,993246  	-0,011067  	-0,049991  	0,285164  	0,144495  	-3,763163  	9766,034601  	7329,671943  	1,063079  	-0,047944  
273,548000  	14,275225  	42,167088  	1256,818530  	1256,670793  	79,913298  	73,724188  	0,004296  	0,008529  	0,003964  	0,004054  	0,004365  	0,000001  	-0,000000  	22,601955  	18,529186  	20,126572  	23,276469  	32,286100  	29,785201  	31,744137  	33,771121  	43,018689  	40,623796  	44,827058  	67,594725  	23,802767  	22,034405  	22,829588  	72,440642  	0,050438  	0,025557  	-2982,844797  	-1,993299  	-0,011067  	-0,049993  	0,315486  	0,159859  	-4,147801  	9741,382225  	7302,846849  	1,059188  	-0,047945  
274,550000  	14,275470  	42,162888  	657,272221  	1256,670793  	79,907175  	73,731921  	0,004291  	0,008533  	0,003964  	0,004067  	0,004336  	0,000001  	-0,000000  	22,605185  	18,526081  	20,123077  	23,273205  	32,273518  	29,778490  	31,738208  	33,763167  	43,011672  	40,622875  	44,821916  	67,594050  	23,792650  	22,037593  	22,820682  	72,433093  	0,060757  	0,030786  	-3592,485754  	9721,356593  	-0,013764  	-0,049993  	0,292110  	0,148014  	-3,831874  	9751,988965  	7205,756816  	1,045107  	-0,047945  
275,549000  	14,273724  	42,157143  	-242,047242  	357,439972  	79,903020  	73,728710  	0,004298  	0,008518  	0,003962  	0,004036  	0,004363  	0,000000  	-0,000000  	22,608997  	18,525212  	20,133108  	23,277109  	32,277398  	29,788045  	31,740301  	33,766960  	43,014453  	40,627499  	44,828412  	67,600130  	23,790569  	22,051716  	22,820523  	72,442042  	0,035796  	0,018138  	-2116,297256  	30939,874565  	-0,051177  	-0,049995  	0,313844  	0,159027  	-4,116347  	9718,990140  	7346,194901  	1,065475  	-0,047947  
276,549000  	14,270722  	42,153437  	957,045375  	956,927186  	79,899583  	73,705823  	0,004294  	0,008537  	0,003962  	0,004083  	0,004356  	-0,000000  	-0,000000  	22,613538  	18,529119  	20,141593  	23,280674  	32,288722  	29,800730  	31,743245  	33,771643  	43,020060  	40,627552  	44,826803  	67,602284  	23,800475  	22,074126  	22,828625  	72,456260  	0,073585  	0,037286  	-4350,260620  	-1,917096  	-0,013766  	-0,050000  	0,308148  	0,156141  	-4,054354  	9760,556845  	7262,930489  	1,053399  	-0,047952  
277,550000  	14,265209  	42,152078  	1256,818530  	-242,047242  	79,899896  	73,697154  	0,004295  	0,008546  	0,003961  	0,004068  	0,004370  	-0,000000  	-0,000000  	22,614132  	18,532889  	20,138766  	23,282317  	32,288097  	29,804351  	31,747630  	33,774313  	43,022245  	40,630615  	44,826834  	67,600702  	23,805578  	22,095638  	22,834925  	72,452371  	0,061778  	0,031303  	-3652,804794  	-35510,574514  	-0,021695  	-0,050002  	0,319389  	0,161837  	-4,208346  	9778,286860  	7276,847904  	1,055418  	-0,047953  
278,656000  	14,258409  	42,158070  	1256,818530  	357,439972  	79,897896  	73,701582  	0,004292  	0,008507  	0,003962  	0,004069  	0,004352  	-0,000001  	-0,000000  	22,610602  	18,530460  	20,135976  	23,279239  	32,280793  	29,798567  	31,746036  	33,770387  	43,012471  	40,629768  	44,828163  	67,602231  	23,801538  	22,113274  	22,827110  	72,440579  	0,062383  	0,031610  	-3690,284738  	-16236,742070  	-0,015677  	-0,050009  	0,305028  	0,154560  	-4,014956  	9694,876838  	7207,875144  	1,045414  	-0,047959  
279,549000  	14,251242  	42,165297  	1256,818530  	1256,670793  	79,898958  	73,699119  	0,004297  	0,008549  	0,003963  	0,004025  	0,004350  	-0,000000  	-0,000000  	22,606996  	18,527287  	20,130826  	23,273235  	32,283178  	29,787426  	31,737804  	33,761751  	43,006655  	40,621150  	44,823396  	67,601541  	23,791766  	22,118935  	22,825344  	72,441545  	0,026612  	0,013484  	-1575,038538  	-1,993659  	-0,011069  	-0,050003  	0,303283  	0,153676  	-3,994257  	9785,033067  	7334,183981  	1,063733  	-0,047954  
280,549000  	14,247627  	42,168200  	1256,818530  	1256,670793  	79,900895  	73,692446  	0,004291  	0,008528  	0,003962  	0,004076  	0,004337  	0,000001  	-0,000000  	22,610267  	18,527897  	20,130318  	23,274170  	32,278827  	29,789352  	31,732521  	33,761305  	43,010950  	40,612685  	44,818452  	67,593806  	23,788833  	22,132037  	22,823850  	72,433869  	0,068251  	0,034583  	-4040,423938  	-1,993263  	-0,011067  	-0,049992  	0,292823  	0,148376  	-3,861855  	9740,659923  	7188,930231  	1,042666  	-0,047944  
281,549000  	14,254090  	42,162703  	1256,818530  	1256,670793  	79,903551  	73,691916  	0,004298  	0,008535  	0,003964  	0,004035  	0,004361  	0,000000  	-0,000000  	22,612116  	18,529641  	20,136528  	23,282599  	32,289211  	29,796286  	31,738260  	33,770759  	43,029347  	40,625354  	44,827457  	67,602886  	23,796709  	22,162902  	22,827259  	72,440571  	0,034978  	0,017723  	-2069,777149  	-1,993379  	-0,011067  	-0,049995  	0,311969  	0,158077  	-4,116464  	9754,278261  	7348,447390  	1,065802  	-0,047947  
282,549000  	14,262605  	42,160973  	1256,818530  	657,183579  	79,905050  	73,685180  	0,004298  	0,008532  	0,003964  	0,004040  	0,004371  	0,000001  	-0,000000  	22,613678  	18,535662  	20,138424  	23,287706  	32,285661  	29,799785  	31,743182  	33,780537  	43,018861  	40,636127  	44,824880  	67,603849  	23,778749  	22,184690  	22,843118  	72,444685  	0,039110  	0,019817  	-2313,437789  	-9724,692758  	-0,013763  	-0,049991  	0,320197  	0,162246  	-4,230640  	9748,121357  	7357,669178  	1,067140  	-0,047944  
283,546000  	14,269313  	42,160603  	1256,818530  	657,183579  	79,905300  	73,698807  	0,004293  	0,008542  	0,003964  	0,004046  	0,004361  	0,000001  	-0,000000  	22,607680  	18,542530  	20,139394  	23,287647  	32,286757  	29,805675  	31,742268  	33,776910  	43,015210  	40,626084  	44,829953  	67,605048  	23,770232  	22,184957  	22,828049  	72,441184  	0,043873  	0,022231  	-2594,523967  	-9723,218407  	-0,013761  	-0,049983  	0,312563  	0,158378  	-4,120903  	9771,023511  	7248,024521  	1,051237  	-0,047937  
284,550000  	14,273601  	42,159861  	57,725912  	57,696365  	79,908424  	73,705916  	0,004301  	0,008531  	0,003963  	0,004075  	0,004373  	0,000001  	-0,000000  	22,614355  	18,537334  	20,142297  	23,286292  	32,294430  	29,803416  	31,747805  	33,766674  	43,019306  	40,632753  	44,830659  	67,601715  	23,763082  	22,194317  	22,836478  	72,441182  	0,067787  	0,034348  	-4008,034458  	-1,524574  	-0,051164  	-0,049983  	0,321552  	0,162933  	-4,236700  	9747,134470  	7410,436728  	1,074793  	-0,047937  
285,548000  	14,271764  	42,163567  	1256,818530  	1256,670793  	79,905800  	73,696032  	0,004295  	0,008545  	0,003963  	0,004072  	0,004360  	0,000002  	-0,000000  	22,606716  	18,538186  	20,137261  	23,270541  	32,285014  	29,800245  	31,741771  	33,771372  	43,015444  	40,632957  	44,825764  	67,602681  	23,759201  	22,212139  	22,826956  	72,448342  	0,064946  	0,032908  	-3840,779350  	-1,992729  	-0,011064  	-0,049977  	0,311547  	0,157863  	-4,109668  	9777,603467  	7280,660894  	1,055971  	-0,047931  
286,552000  	14,265025  	42,162270  	1256,818530  	1256,670793  	79,904863  	73,700210  	0,004297  	0,008525  	0,003963  	0,004069  	0,004364  	0,000000  	-0,000000  	22,608337  	18,534245  	20,126577  	23,277851  	32,289404  	29,796344  	31,744918  	33,775756  	43,015653  	40,630548  	44,822081  	67,599900  	23,766752  	22,225028  	22,831850  	72,436111  	0,062633  	0,031736  	-3704,718509  	-1,993474  	-0,011068  	-0,049998  	0,314880  	0,159552  	-4,150211  	9732,972813  	7326,621550  	1,062637  	-0,047949  
287,548000  	14,260706  	42,161436  	1256,818530  	1256,670793  	79,911767  	73,706540  	0,004292  	0,008532  	0,003962  	0,004050  	0,004348  	0,000000  	-0,000000  	22,619122  	18,532774  	20,135741  	23,283062  	32,293197  	29,799250  	31,748048  	33,782517  	43,023720  	40,631811  	44,818401  	67,604324  	23,755151  	22,228672  	22,830408  	72,446798  	0,046961  	0,023796  	-2778,112545  	-1,993471  	-0,011068  	-0,049998  	0,301569  	0,152807  	-3,975145  	9748,141873  	7226,544675  	1,048122  	-0,047949  
288,551000  	14,257582  	42,161436  	1256,818530  	1256,670793  	79,911142  	73,694379  	0,004298  	0,008537  	0,003962  	0,004063  	0,004377  	0,000001  	-0,000000  	22,619956  	18,540291  	20,142037  	23,292889  	32,300743  	29,805810  	31,754596  	33,785002  	43,025967  	40,637336  	44,828169  	67,608820  	23,773530  	22,242193  	22,851243  	72,453223  	0,057556  	0,029164  	-3405,249292  	-1,993332  	-0,011067  	-0,049994  	0,324484  	0,164418  	-4,285144  	9759,288394  	7341,125036  	1,064740  	-0,047946  
289,548000  	14,253845  	42,161529  	1256,818530  	1256,670793  	79,907675  	73,694036  	0,004292  	0,008520  	0,003960  	0,004067  	0,004377  	0,000000  	-0,000000  	22,623807  	18,538033  	20,136726  	23,277752  	32,299972  	29,806495  	31,749165  	33,782337  	43,017054  	40,643600  	44,827420  	67,602508  	23,777367  	22,239662  	22,842640  	72,452349  	0,061147  	0,030984  	-3618,215133  	-1,993498  	-0,011068  	-0,049998  	0,324607  	0,164481  	-4,284615  	9722,118467  	7207,331440  	1,045335  	-0,047950  
290,549000  	14,248883  	42,158317  	1256,818530  	1256,670793  	79,905675  	73,698900  	0,004292  	0,008522  	0,003960  	0,004068  	0,004352  	-0,000001  	-0,000000  	22,622932  	18,539251  	20,137416  	23,287329  	32,302852  	29,807756  	31,744849  	33,775204  	43,018418  	40,637874  	44,824899  	67,610389  	23,788781  	22,246283  	22,844635  	72,446906  	0,061565  	0,031195  	-3643,142984  	-1,993789  	-0,011070  	-0,050006  	0,304780  	0,154434  	-4,018465  	9727,272212  	7209,682784  	1,045676  	-0,047957  
291,548000  	14,239511  	42,155260  	357,499067  	1256,670793  	79,900458  	73,698744  	0,004298  	0,008547  	0,003960  	0,004081  	0,004367  	0,000001  	-0,000000  	22,608351  	18,537062  	20,148260  	23,286279  	32,296506  	29,807298  	31,750250  	33,777513  	43,013930  	40,635286  	44,822839  	67,598357  	23,775543  	22,242738  	22,847914  	72,452927  	0,072242  	0,036606  	-4275,970871  	16229,158568  	-0,015674  	-0,049993  	0,316950  	0,160601  	-4,175521  	9782,278979  	7356,645319  	1,066991  	-0,047946  
292,549000  	14,229893  	42,152727  	-242,047242  	1256,670793  	79,899021  	73,701114  	0,004289  	0,008522  	0,003963  	0,004089  	0,004321  	0,000000  	-0,000000  	22,610776  	18,540497  	20,143153  	23,284770  	32,297319  	29,807722  	31,751371  	33,784254  	43,019817  	40,632128  	44,823480  	67,602000  	23,785543  	22,246389  	22,853893  	72,444788  	0,078903  	0,039981  	-4671,378890  	35508,476543  	-0,021696  	-0,049999  	0,280836  	0,142302  	-3,697483  	9727,759642  	7150,306050  	1,037064  	-0,047951  
293,549000  	14,230996  	42,153746  	-242,047242  	57,696365  	79,899552  	73,699617  	0,004298  	0,008543  	0,003963  	0,004004  	0,004363  	0,000001  	-0,000000  	22,616972  	18,543393  	20,136386  	23,286745  	32,294485  	29,808890  	31,746824  	33,787647  	43,023536  	40,634827  	44,825126  	67,602033  	23,794739  	22,259316  	22,845616  	72,446539  	0,009600  	0,004865  	-568,388994  	27691,317715  	-0,093541  	-0,049984  	0,313623  	0,158915  	-4,130510  	9772,850844  	7340,270644  	1,064616  	-0,047938  
294,548000  	14,232098  	42,154487  	-242,047242  	1256,670793  	79,901239  	73,698869  	0,004294  	0,008545  	0,003963  	0,004053  	0,004343  	0,000001  	-0,000000  	22,623157  	18,542975  	20,149391  	23,291010  	32,297450  	29,809854  	31,749492  	33,776937  	43,020155  	40,642352  	44,831111  	67,600908  	23,788315  	22,266867  	22,834749  	72,440582  	0,049190  	0,024925  	-2912,213902  	35503,608764  	-0,021693  	-0,049992  	0,297744  	0,150869  	-3,922911  	9777,699680  	7270,669447  	1,054521  	-0,047944  
295,549000  	14,229985  	42,154487  	657,272221  	1256,670793  	79,898240  	73,709315  	0,004295  	0,008536  	0,003963  	0,004106  	0,004374  	0,000002  	-0,000000  	22,619349  	18,540889  	20,150895  	23,297194  	32,299413  	29,807182  	31,751758  	33,780563  	43,018524  	40,641391  	44,827798  	67,604082  	23,786887  	22,280697  	22,842471  	72,447880  	0,092883  	0,047064  	-5499,398961  	9718,339933  	-0,013760  	-0,049976  	0,322223  	0,163273  	-4,236235  	9758,084321  	7280,950399  	1,056013  	-0,047931  
296,547000  	14,228086  	42,156217  	1256,818530  	1256,670793  	79,902926  	73,698464  	0,004293  	0,008516  	0,003964  	0,004075  	0,004372  	0,000001  	-0,000000  	22,615808  	18,536667  	20,145838  	23,289268  	32,293900  	29,798154  	31,747953  	33,771909  	43,020832  	40,631626  	44,816018  	67,600751  	23,781161  	22,283769  	22,842583  	72,446127  	0,067061  	0,033980  	-3971,046527  	-1,993144  	-0,011066  	-0,049988  	0,320547  	0,162424  	-4,224780  	9713,912091  	7238,788611  	1,049898  	-0,047941  
297,549000  	14,229403  	42,154487  	1256,818530  	1256,670793  	79,911205  	73,692477  	0,004297  	0,008537  	0,003964  	0,004061  	0,004402  	0,000001  	-0,000000  	22,614810  	18,538282  	20,140275  	23,286659  	32,290212  	29,794875  	31,743773  	33,767047  	43,021808  	40,632714  	44,816060  	67,593726  	23,776965  	22,291720  	22,842349  	72,438623  	0,056445  	0,028601  	-3342,082082  	-1,993316  	-0,011067  	-0,049993  	0,344375  	0,174497  	-4,549264  	9760,121058  	7329,177666  	1,063007  	-0,047946  
298,549000  	14,236509  	42,151523  	1256,818530  	657,183579  	79,912142  	73,696406  	0,004292  	0,008535  	0,003964  	0,004056  	0,004348  	0,000001  	-0,000000  	22,624354  	18,539509  	20,145628  	23,296748  	32,295910  	29,802409  	31,748212  	33,771272  	43,022841  	40,634695  	44,825486  	67,597650  	23,771442  	22,305668  	22,847785  	72,441058  	0,051844  	0,026270  	-3068,518982  	-9724,720536  	-0,013763  	-0,049991  	0,301851  	0,152950  	-3,985599  	9755,957738  	7213,043864  	1,046164  	-0,047944  
299,552000  	14,246984  	42,151245  	357,499067  	657,183579  	79,906175  	73,706415  	0,004292  	0,008536  	0,003962  	0,004071  	0,004331  	0,000001  	-0,000000  	22,622669  	18,541567  	20,147351  	23,301210  	32,302754  	29,808800  	31,752849  	33,778445  	43,025808  	40,632075  	44,833187  	67,605951  	23,768291  	22,311862  	22,848523  	72,446928  	0,064193  	0,032527  	-3797,958927  	7099,279694  	-0,021693  	-0,049993  	0,288192  	0,146029  	-3,795463  	9757,248120  	7223,409549  	1,047667  	-0,047945  
300,550000  	14,254703  	42,150812  	-242,047242  	1256,670793  	79,902176  	73,710718  	0,004298  	0,008539  	0,003962  	0,004049  	0,004364  	-0,000000  	-0,000000  	22,620707  	18,544831  	20,144150  	23,292363  	32,300028  	29,808394  	31,753654  	33,777260  	43,029098  	40,633844  	44,829551  	67,607839  	23,767578  	22,314922  	22,847366  	72,450104  	0,046032  	0,023325  	-2722,701885  	35509,337245  	-0,021697  	-0,050001  	0,314205  	0,159210  	-4,132523  	9764,969894  	7348,581551  	1,065822  	-0,047952  
301,548000  	14,251915  	42,154642  	957,045375  	1256,670793  	79,902957  	73,702330  	0,004293  	0,008547  	0,003961  	0,004065  	0,004352  	0,000000  	-0,000000  	22,621025  	18,543907  	20,145761  	23,287029  	32,296453  	29,805449  	31,751751  	33,775017  	43,032164  	40,639053  	44,827955  	67,607964  	23,771761  	22,322699  	22,845756  	72,446469  	0,059696  	0,030248  	-3531,706163  	4416,582985  	-0,012270  	-0,049998  	0,304896  	0,154493  	-4,016024  	9781,303411  	7238,470862  	1,049851  	-0,047949  
302,549000  	14,244319  	42,160016  	357,499067  	1256,670793  	79,904457  	73,703079  	0,004297  	0,008517  	0,003965  	0,004065  	0,004352  	0,000001  	-0,000000  	22,613060  	18,544691  	20,146529  	23,292712  	32,298826  	29,809531  	31,749280  	33,779125  	43,030158  	40,638716  	44,832085  	67,607818  	23,778981  	22,334849  	22,844090  	72,442904  	0,059514  	0,030156  	-3522,563481  	16226,414106  	-0,015671  	-0,049984  	0,305069  	0,154581  	-4,018783  	9716,942791  	7322,130695  	1,061985  	-0,047938  
