06/24/2020 16:25:44
Tempo T_f_e T_f_s AR AR T_q_e T_q_s Corrente_P_f Corrente_P_q Corrente_P_RESERVA Corrente_eletromag_f Corrente_eletromag_q AR AR T_1 T_2 T_3 T_4 T_5 T_6 T_7 T_8 T_9 T_10 T_11 T_12 T_13 T_14 T_15 T_16 Velocidade_f_(m/s) Vazao_f_(L/s) q_f_(W) AR AR AR Velocidade_q_(m/s) Vazao_q_(L/s) q_q_(W) DeltaP_q_(Pa) DeltaP_f_(Pa) DeltaP_f_(Psi) AR
0,008000  	18,354399  	39,563386  	26,539235  	956,927186  	79,994152  	73,427727  	0,004511  	0,008502  	0,003964  	0,004123  	0,004293  	0,000000  	-0,000000  	25,311978  	21,726269  	23,167442  	25,094467  	32,038099  	30,012980  	31,817469  	33,090890  	40,239251  	38,539177  	42,700751  	67,002534  	28,983067  	27,860153  	28,119605  	72,420100  	0,106662  	0,054046  	-4794,378547  	22426,086833  	-0,022137  	-0,049996  	0,258240  	0,130852  	-3,601977  	9683,536476  	11945,875818  	1,732603  	-0,047948  
2,552000  	18,371143  	39,562152  	26,538744  	357,439972  	79,998526  	73,428787  	0,004511  	0,008242  	0,003963  	0,004109  	0,004370  	0,000000  	-0,000000  	25,316350  	21,736873  	23,159202  	25,089563  	32,040706  	30,019315  	31,817194  	33,089319  	40,228957  	38,531709  	42,694886  	66,997821  	28,979114  	27,853104  	28,132428  	72,411094  	0,094627  	0,047948  	-4249,826581  	12418,176069  	-0,036402  	-0,049996  	0,319584  	0,161935  	-4,459869  	9123,420946  	11943,206725  	1,732216  	-0,047948  
3,552000  	18,373627  	39,559930  	26,538559  	1256,670793  	80,000182  	73,432965  	0,004518  	0,008638  	0,003962  	0,004074  	0,004318  	0,000000  	-0,000000  	25,314252  	21,730132  	23,161180  	25,095495  	32,036160  	30,016887  	31,814494  	33,089026  	40,221398  	38,535573  	42,703041  	67,004884  	28,978575  	27,850743  	28,138512  	72,419619  	0,066438  	0,033665  	-2983,138438  	25484,698853  	-0,018511  	-0,049999  	0,277718  	0,140722  	-3,874134  	9977,224960  	12095,126148  	1,754250  	-0,047950  
4,555000  	18,384422  	39,563880  	26,537698  	57,696365  	80,001806  	73,416939  	0,004525  	0,008351  	0,003964  	0,003995  	0,004347  	0,000000  	-0,000000  	25,321851  	21,735497  	23,166500  	25,095658  	32,031757  	30,017546  	31,819791  	33,091861  	40,235221  	38,533365  	42,708108  	67,005261  	28,978484  	27,856982  	28,138127  	72,425653  	0,002412  	0,001222  	-108,244441  	1683,606443  	-0,053707  	-0,049996  	0,301429  	0,152736  	-4,216197  	9359,105921  	12228,256001  	1,773559  	-0,047948  
5,558000  	18,401964  	39,560887  	26,535792  	1256,670793  	80,002681  	73,410236  	0,004507  	0,008362  	0,003963  	0,004083  	0,004368  	-0,000001  	-0,000000  	25,315502  	21,730044  	23,150284  	25,099646  	32,029451  	30,014724  	31,815681  	33,090106  	40,228757  	38,531072  	42,697199  	67,004225  	28,971271  	27,856636  	28,124616  	72,417286  	0,074123  	0,037559  	-3323,918420  	25491,156160  	-0,018516  	-0,050013  	0,317902  	0,161083  	-4,451718  	9382,349771  	11858,106428  	1,719873  	-0,047962  
6,556000  	18,417543  	39,554900  	26,536100  	657,183579  	80,005056  	73,425326  	0,004514  	0,008526  	0,003964  	0,004140  	0,004338  	0,000000  	-0,000000  	25,318481  	21,734921  	23,152333  	25,094607  	32,032693  	30,011006  	31,812519  	33,082102  	40,226153  	38,516766  	42,688032  	67,003420  	28,973130  	27,862950  	28,129347  	72,418166  	0,119671  	0,060638  	-5360,923010  	18386,291124  	-0,027531  	-0,049995  	0,294281  	0,149114  	-4,113010  	9736,812830  	11995,748320  	1,739836  	-0,047947  
7,556000  	18,424443  	39,555825  	26,534348  	657,183579  	80,008523  	73,418779  	0,004524  	0,008407  	0,003963  	0,004202  	0,004293  	0,000001  	-0,000000  	25,322592  	21,732429  	23,166121  	25,088250  	32,034288  	30,014612  	31,815477  	33,088557  	40,234203  	38,530076  	42,698070  	67,002979  	28,971023  	27,869361  	28,134891  	72,424483  	0,170359  	0,086322  	-7629,479301  	18384,688976  	-0,027528  	-0,049989  	0,258293  	0,130879  	-3,615517  	9479,070393  	12215,122367  	1,771654  	-0,047942  
8,551000  	18,428430  	39,552431  	26,532257  	1256,670793  	80,011023  	73,416347  	0,004512  	0,008481  	0,003963  	0,004133  	0,004378  	-0,000001  	-0,000000  	25,313880  	21,729962  	23,156396  	25,085351  	32,033167  	30,009188  	31,811768  	33,081448  	40,233200  	38,533882  	42,696483  	67,002649  	28,968864  	27,856048  	28,124231  	72,416044  	0,114005  	0,057767  	-5103,899810  	25490,440088  	-0,018515  	-0,050011  	0,325661  	0,165015  	-4,561927  	9637,984727  	11960,520526  	1,734727  	-0,047961  
9,592000  	18,443395  	39,545210  	26,530198  	-242,047242  	80,011023  	73,430782  	0,004507  	0,008504  	0,003963  	0,004043  	0,004378  	-0,000000  	-0,000000  	25,304033  	21,732197  	23,153999  	25,086481  	32,031330  	30,008752  	31,813505  	33,083660  	40,223062  	38,528275  	42,693078  	67,009761  	28,966556  	27,843919  	28,127496  	72,417439  	0,041812  	0,021187  	-1869,927115  	-27109,157017  	-0,102393  	-0,050005  	0,325287  	0,164825  	-4,546720  	9689,022014  	11847,691316  	1,718362  	-0,047956  
10,552000  	18,448916  	39,547246  	26,529398  	357,439972  	80,005587  	73,445499  	0,004518  	0,008442  	0,003965  	0,004097  	0,004406  	0,000001  	-0,000000  	25,311771  	21,728412  	23,161320  	25,087442  	32,033677  	30,012121  	31,812249  	33,083735  	40,221608  	38,526236  	42,697095  	67,010428  	28,968932  	27,826201  	28,128107  	72,419108  	0,085191  	0,043167  	-3809,267959  	12416,255049  	-0,036396  	-0,049985  	0,348106  	0,176388  	-4,850779  	9555,589890  	12093,713929  	1,754045  	-0,047939  
11,552000  	18,453516  	39,556504  	26,528292  	1256,670793  	79,999307  	73,440604  	0,004526  	0,008069  	0,003963  	0,004114  	0,004383  	-0,000001  	-0,000000  	25,311028  	21,726889  	23,152973  	25,085836  	32,034611  	30,015156  	31,819183  	33,081591  	40,226328  	38,528558  	42,698159  	67,005486  	28,971251  	27,808342  	28,131283  	72,414277  	0,099280  	0,050306  	-4440,247920  	25489,887244  	-0,018515  	-0,050009  	0,329217  	0,166817  	-4,586592  	8750,633617  	12252,002458  	1,777003  	-0,047959  
12,556000  	18,460140  	39,564960  	26,527247  	57,696365  	79,998932  	73,428756  	0,004507  	0,008677  	0,003963  	0,004105  	0,004371  	-0,000001  	-0,000000  	25,303999  	21,724167  	23,145885  	25,077007  	32,029689  	30,003345  	31,808126  	33,081509  	40,219624  	38,523538  	42,696745  	67,004215  	28,972227  	27,796160  	28,129022  	72,405363  	0,091723  	0,046477  	-4102,598320  	1684,576807  	-0,053720  	-0,050009  	0,319871  	0,162081  	-4,464168  	10061,926072  	11858,911393  	1,719990  	-0,047959  
13,552000  	18,451798  	39,563695  	26,527185  	57,696365  	80,005774  	73,412231  	0,004515  	0,008427  	0,003964  	0,004149  	0,004344  	0,000001  	-0,000000  	25,304874  	21,720983  	23,149615  	25,075453  	32,024232  	29,998900  	31,801378  	33,082164  	40,216855  	38,516747  	42,691988  	67,001304  	28,970250  	27,791394  	28,121709  	72,408577  	0,127458  	0,064584  	-5702,865004  	1684,057809  	-0,053704  	-0,049991  	0,298687  	0,151347  	-4,183342  	9523,298511  	12012,490173  	1,742264  	-0,047944  
14,553000  	18,435238  	39,574064  	26,525771  	1256,670793  	80,013022  	73,405559  	0,004524  	0,008488  	0,003963  	0,004117  	0,004373  	-0,000000  	-0,000000  	25,308541  	21,718888  	23,152970  	25,078028  	32,024370  	30,006518  	31,808983  	33,081972  	40,220266  	38,520929  	42,694278  	67,000231  	28,968929  	27,784329  	28,123256  	72,416420  	0,101179  	0,051268  	-4532,874830  	25486,531086  	-0,018512  	-0,050002  	0,321836  	0,163077  	-4,517071  	9653,339138  	12226,808477  	1,773349  	-0,047953  
15,555000  	18,424841  	39,584803  	26,524111  	1256,670793  	80,015834  	73,405715  	0,004516  	0,008520  	0,003961  	0,004113  	0,004345  	-0,000000  	-0,000000  	25,308126  	21,717601  	23,150014  	25,076166  	32,024417  	30,009153  	31,806058  	33,075958  	40,219313  	38,525622  	42,696979  	67,001347  	28,974689  	27,774111  	28,126739  	72,413391  	0,098118  	0,049717  	-4400,110079  	25488,010674  	-0,018513  	-0,050005  	0,299645  	0,151832  	-4,207305  	9724,060406  	12050,012822  	1,747707  	-0,047956  
16,553000  	18,426375  	39,583939  	26,523435  	1256,670793  	80,012835  	73,419807  	0,004507  	0,008349  	0,003961  	0,004095  	0,004323  	-0,000000  	-0,000000  	25,309549  	21,724896  	23,150221  	25,079306  	32,022258  	30,010883  	31,805016  	33,075888  	40,220116  	38,524751  	42,697015  	67,003640  	28,983513  	27,772859  	28,131872  	72,412388  	0,083505  	0,042313  	-3744,394208  	25486,888510  	-0,018512  	-0,050002  	0,281938  	0,142860  	-3,948455  	9353,938027  	11847,768988  	1,718374  	-0,047953  
17,557000  	18,428368  	39,572583  	26,522666  	1256,670793  	80,008867  	73,441134  	0,004518  	0,008417  	0,003961  	0,004029  	0,004336  	0,000002  	-0,000000  	25,312863  	21,731940  	23,158698  	25,087049  	32,025029  	30,015780  	31,812518  	33,084837  	40,221366  	38,526002  	42,700817  	67,009058  	28,986673  	27,771882  	28,140361  	72,416916  	0,030316  	0,015361  	-1358,511689  	25473,625188  	-0,018503  	-0,049973  	0,292658  	0,148292  	-4,082876  	9500,586660  	12077,431048  	1,751683  	-0,047928  
18,554000  	18,420211  	39,574002  	26,521744  	1256,670793  	80,011491  	73,438515  	0,004523  	0,008363  	0,003963  	0,004126  	0,004336  	0,000002  	-0,000000  	25,307982  	21,726081  	23,158479  	25,088306  	32,029064  	30,014152  	31,810820  	33,080518  	40,219622  	38,522506  	42,688909  	67,007411  	28,983071  	27,758264  	28,129839  	72,414769  	0,108967  	0,055215  	-4885,246766  	25475,961792  	-0,018504  	-0,049978  	0,292469  	0,148196  	-4,083490  	9384,731742  	12196,339859  	1,768930  	-0,047933  
19,553000  	18,404386  	39,579094  	26,520914  	1256,670793  	80,018833  	73,437486  	0,004510  	0,008618  	0,003965  	0,004022  	0,004354  	-0,000001  	-0,000000  	25,306337  	21,726809  	23,151522  	25,081711  	32,027333  	30,003203  	31,805106  	33,074073  	40,219186  	38,520950  	42,683610  	67,005049  	28,981695  	27,738656  	28,117782  	72,411836  	0,024379  	0,012353  	-1094,037165  	25492,488807  	-0,018516  	-0,050014  	0,306473  	0,155292  	-4,284474  	9934,028299  	11909,821876  	1,727374  	-0,047964  
20,553000  	18,386783  	39,583908  	26,519561  	1256,670793  	80,017834  	73,439793  	0,004514  	0,008573  	0,003964  	0,004113  	0,004321  	-0,000000  	-0,000000  	25,309634  	21,731838  	23,149366  	25,084873  	32,020576  	30,008580  	31,799747  	33,072102  	40,220394  	38,527789  	42,694511  	67,002261  	28,983743  	27,714920  	28,127614  	72,407117  	0,098234  	0,049776  	-4413,081301  	25486,713385  	-0,018512  	-0,050002  	0,280850  	0,142309  	-3,924288  	9837,882831  	12001,298340  	1,740641  	-0,047953  
21,553000  	18,375866  	39,592488  	26,519285  	57,696365  	80,011741  	73,440978  	0,004526  	0,008525  	0,003963  	0,004108  	0,004303  	-0,000001  	-0,000000  	25,303054  	21,723931  	23,148230  	25,088066  	32,023399  	30,010476  	31,802686  	33,081241  	40,224615  	38,518187  	42,699983  	67,009212  	28,978383  	27,694517  	28,121265  	72,404305  	0,093967  	0,047614  	-4225,262751  	1684,968034  	-0,053719  	-0,050007  	0,266319  	0,134946  	-3,717133  	9734,700396  	12249,446342  	1,776632  	-0,047957  
22,554000  	18,374884  	39,597672  	26,518362  	1256,670793  	80,009304  	73,455819  	0,004518  	0,008005  	0,003961  	0,004082  	0,004372  	-0,000001  	-0,000000  	25,309417  	21,723801  	23,158814  	25,091510  	32,033567  	30,014167  	31,815684  	33,077041  	40,227320  	38,528039  	42,699200  	67,014566  	28,998584  	27,671782  	28,130774  	72,405824  	0,073265  	0,037124  	-3295,373586  	25492,858815  	-0,018517  	-0,050015  	0,321157  	0,162733  	-4,470760  	8611,973466  	12080,375524  	1,752110  	-0,047964  
23,554000  	18,383256  	39,594802  	26,517994  	1256,670793  	80,013772  	73,456287  	0,004507  	0,008606  	0,003966  	0,004040  	0,004351  	0,000000  	-0,000000  	25,303245  	21,715638  	23,141918  	25,078158  	32,019587  	29,999647  	31,794808  	33,074530  	40,213936  	38,509879  	42,688452  	66,993801  	28,980972  	27,646169  	28,120655  	72,407283  	0,039068  	0,019796  	-1756,309227  	25484,162458  	-0,018510  	-0,049996  	0,304578  	0,154332  	-4,242551  	9909,044131  	11850,155637  	1,718720  	-0,047948  
24,552000  	18,389697  	39,592148  	26,517932  	1256,670793  	80,015272  	73,441446  	0,004515  	0,008348  	0,003964  	0,004143  	0,004421  	0,000000  	-0,000000  	25,312955  	21,733153  	23,150415  	25,081898  	32,026034  	30,007386  	31,800995  	33,081867  	40,220407  	38,528112  	42,699063  	67,010024  	28,982691  	27,626188  	28,116193  	72,409494  	0,122544  	0,062094  	-5506,547662  	25485,263717  	-0,018511  	-0,049998  	0,359774  	0,182300  	-5,023872  	9351,807199  	12013,542275  	1,742417  	-0,047950  
25,555000  	18,409968  	39,602733  	26,517164  	1256,670793  	80,015709  	73,433433  	0,004521  	0,008505  	0,003964  	0,004058  	0,004363  	-0,000001  	-0,000000  	25,316181  	21,730004  	23,154573  	25,094176  	32,032843  	30,012113  	31,822269  	33,074130  	40,218742  	38,514291  	42,710322  	67,008906  	28,986738  	27,612385  	28,132423  	72,403722  	0,053607  	0,027163  	-2407,752300  	25490,101858  	-0,018515  	-0,050009  	0,314145  	0,159180  	-4,392344  	9690,875523  	12144,589106  	1,761424  	-0,047959  
26,553000  	18,426221  	39,606004  	26,517532  	1256,670793  	80,017209  	73,433433  	0,004512  	0,008610  	0,003966  	0,004137  	0,004387  	-0,000001  	-0,000000  	25,313414  	21,732336  	23,166955  	25,097902  	32,043803  	30,020378  	31,817979  	33,100022  	40,228311  	38,528903  	42,694225  	67,016026  	28,996911  	27,595402  	28,130241  	72,412770  	0,117939  	0,059760  	-5293,936247  	25493,574359  	-0,018517  	-0,050017  	0,332934  	0,168700  	-4,656111  	9916,379640  	11953,198172  	1,733665  	-0,047966  
27,554000  	18,434502  	39,596006  	26,516057  	1256,670793  	80,015022  	73,436395  	0,004514  	0,008380  	0,003964  	0,004175  	0,004390  	-0,000000  	-0,000000  	25,303512  	21,725178  	23,155630  	25,074373  	32,025010  	30,008224  	31,806992  	33,089030  	40,221711  	38,515461  	42,696521  	66,998136  	28,988435  	27,570578  	28,107959  	72,392880  	0,148466  	0,075229  	-6658,448204  	25487,759967  	-0,018513  	-0,050004  	0,335093  	0,169794  	-4,682643  	9421,183612  	12008,437105  	1,741677  	-0,047955  
28,554000  	18,427571  	39,585328  	26,516672  	57,696365  	80,011523  	73,429286  	0,004523  	0,008400  	0,003962  	0,004041  	0,004315  	0,000000  	-0,000000  	25,301823  	21,714378  	23,135728  	25,083068  	32,014511  	30,003897  	31,804432  	33,076784  	40,217404  	38,523610  	42,685774  	66,998066  	28,976009  	27,558356  	28,104354  	72,392380  	0,040112  	0,020325  	-1798,655046  	1684,826069  	-0,053710  	-0,049997  	0,276047  	0,139875  	-3,859636  	9463,669998  	12195,845583  	1,768858  	-0,047949  
29,551000  	18,424197  	39,579866  	26,516180  	956,927186  	80,008836  	73,423611  	0,004521  	0,008426  	0,003960  	0,004092  	0,004357  	0,000000  	-0,000000  	25,313269  	21,728887  	23,155092  	25,093191  	32,042532  	30,015394  	31,808603  	33,084487  	40,227686  	38,522902  	42,699596  	67,011320  	28,981907  	27,562578  	28,129667  	72,407871  	0,080827  	0,040956  	-3623,962950  	22426,385593  	-0,022137  	-0,049995  	0,309363  	0,156757  	-4,327411  	9521,116747  	12160,257672  	1,763696  	-0,047947  
30,553000  	18,430760  	39,574990  	26,515258  	-242,047242  	80,011335  	73,417438  	0,004508  	0,008531  	0,003962  	0,004088  	0,004404  	0,000002  	-0,000000  	25,312089  	21,735939  	23,168006  	25,088333  	32,043572  	30,019894  	31,826774  	33,093638  	40,236777  	38,533811  	42,705542  	67,018890  	28,981365  	27,568772  	28,134019  	72,414450  	0,077751  	0,039397  	-3484,147287  	-27096,302257  	-0,102350  	-0,049979  	0,345834  	0,175237  	-4,843937  	9747,519320  	11879,515663  	1,722978  	-0,047934  
31,554000  	18,441893  	39,570916  	26,516549  	657,183579  	80,015459  	73,431780  	0,004515  	0,008529  	0,003962  	0,004029  	0,004326  	-0,000001  	-0,000000  	25,310202  	21,722691  	23,156480  	25,089641  	32,027934  	30,004902  	31,813759  	33,090514  	40,219892  	38,524171  	42,702617  	67,005146  	28,983973  	27,563625  	28,123934  	72,416157  	0,030457  	0,015433  	-1363,839351  	18391,111688  	-0,027537  	-0,050007  	0,284359  	0,144087  	-3,976724  	9741,781932  	12017,538854  	1,742997  	-0,047957  
32,551000  	18,444591  	39,575669  	26,516610  	1256,670793  	80,015272  	73,446808  	0,004523  	0,008399  	0,003962  	0,004113  	0,004364  	0,000002  	-0,000000  	25,309214  	21,717296  	23,145269  	25,087602  	32,026604  	30,002927  	31,807021  	33,080688  	40,218608  	38,512900  	42,694187  	66,995429  	28,975179  	27,549481  	28,117415  	72,404766  	0,098321  	0,049820  	-4403,185743  	25477,309253  	-0,018505  	-0,049981  	0,314713  	0,159467  	-4,391054  	9462,869169  	12189,349377  	1,767916  	-0,047935  
33,554000  	18,444929  	39,582057  	26,516180  	57,696365  	80,015803  	73,463863  	0,004509  	0,008264  	0,003963  	0,004080  	0,004403  	0,000000  	-0,000000  	25,311389  	21,719848  	23,155315  	25,083773  	32,024157  	30,007425  	31,808752  	33,088114  	40,220637  	38,526994  	42,699589  	67,000259  	28,975567  	27,562939  	28,109910  	72,399585  	0,071760  	0,036361  	-3214,605524  	1684,756299  	-0,053707  	-0,049994  	0,345717  	0,175177  	-4,811520  	9170,769609  	11901,567458  	1,726176  	-0,047946  
34,570000  	18,448241  	39,577428  	26,516057  	657,183579  	80,016365  	73,450706  	0,004513  	0,008564  	0,003963  	0,004106  	0,004345  	-0,000002  	-0,000000  	25,312969  	21,730372  	23,156681  	25,091059  	32,034310  	30,016712  	31,818848  	33,086391  	40,224710  	38,530363  	42,707642  	67,009603  	28,984548  	27,578006  	28,123645  	72,406612  	0,092294  	0,046766  	-4132,894348  	18398,044719  	-0,027548  	-0,050028  	0,299207  	0,151610  	-4,172925  	9818,582285  	11979,295973  	1,737450  	-0,047975  
35,568000  	18,445481  	39,582334  	26,514581  	657,183579  	80,016428  	73,434181  	0,004525  	0,008508  	0,003963  	0,004100  	0,004350  	-0,000001  	-0,000000  	25,305586  	21,730895  	23,153070  	25,099651  	32,037237  	30,015091  	31,815405  	33,087520  	40,222120  	38,528453  	42,701299  	67,007930  	28,989495  	27,587203  	28,121080  	72,407258  	0,087981  	0,044581  	-3941,212375  	18392,374786  	-0,027539  	-0,050010  	0,303612  	0,153843  	-4,245053  	9696,375916  	12227,931191  	1,773511  	-0,047960  
36,575000  	18,443027  	39,592704  	26,513598  	57,696365  	80,019052  	73,435054  	0,004521  	0,008485  	0,003963  	0,004083  	0,004320  	-0,000001  	-0,000000  	25,309027  	21,734125  	23,160716  	25,093778  	32,034555  	30,011832  	31,809585  	33,084108  	40,226663  	38,523673  	42,704501  	67,009800  	28,978105  	27,591481  	28,126092  	72,416574  	0,073642  	0,037315  	-3300,862880  	1685,308498  	-0,053720  	-0,050007  	0,279602  	0,141676  	-3,910384  	9648,021265  	12149,235306  	1,762098  	-0,047958  
37,554000  	18,444714  	39,594648  	26,515135  	1256,670793  	80,021145  	73,440261  	0,004506  	0,008496  	0,003961  	0,004120  	0,004325  	-0,000001  	-0,000000  	25,316202  	21,728887  	23,161798  	25,095798  	32,028561  	30,019388  	31,815479  	33,082735  	40,230512  	38,527554  	42,706957  	67,009106  	28,974690  	27,577569  	28,120604  	72,409436  	0,103528  	0,052458  	-4640,513797  	25489,253022  	-0,018514  	-0,050007  	0,283505  	0,143654  	-3,963106  	9672,287375  	11829,261862  	1,715689  	-0,047957  
38,551000  	18,448885  	39,588784  	26,514335  	1256,670793  	80,020208  	73,458095  	0,004512  	0,008567  	0,003961  	0,004074  	0,004390  	-0,000001  	-0,000000  	25,306608  	21,722741  	23,159056  	25,092157  	32,029050  	30,016999  	31,813956  	33,080549  	40,222646  	38,526236  	42,705926  	67,005563  	28,975632  	27,567560  	28,112679  	72,396551  	0,066515  	0,033704  	-2980,059436  	25492,418073  	-0,018516  	-0,050014  	0,335031  	0,169763  	-4,670032  	9823,968073  	11967,913490  	1,735799  	-0,047963  
39,557000  	18,454129  	39,587581  	26,513874  	1256,670793  	80,023707  	73,466482  	0,004524  	0,008321  	0,003962  	0,004090  	0,004379  	-0,000001  	-0,000000  	25,307799  	21,725148  	23,159292  	25,093776  	32,036359  	30,009755  	31,808429  	33,085251  	40,224479  	38,527234  	42,706155  	67,008468  	28,970211  	27,564460  	28,120096  	72,397036  	0,079161  	0,040112  	-3545,549704  	25492,479658  	-0,018516  	-0,050014  	0,326183  	0,165279  	-4,543318  	9293,109685  	12209,833608  	1,770887  	-0,047963  
40,552000  	18,446707  	39,593259  	26,512768  	57,696365  	80,024395  	73,471720  	0,004514  	0,008618  	0,003962  	0,004040  	0,004325  	-0,000000  	-0,000000  	25,323665  	21,733626  	23,162704  	25,099286  	32,041943  	30,013650  	31,816607  	33,095554  	40,234933  	38,532566  	42,710693  	67,014128  	28,971827  	27,564312  	28,124694  	72,408707  	0,038719  	0,019619  	-1735,271860  	1685,217382  	-0,053716  	-0,050003  	0,283275  	0,143538  	-3,942933  	9934,592133  	12007,702751  	1,741570  	-0,047954  
41,551000  	18,430699  	39,592025  	26,512798  	57,696365  	80,021864  	73,470505  	0,004509  	0,008238  	0,003963  	0,004107  	0,004404  	0,000001  	-0,000000  	25,321148  	21,731295  	23,158517  	25,092957  	32,035719  	30,014459  	31,816929  	33,091617  	40,226691  	38,528302  	42,708685  	67,010256  	28,973434  	27,565930  	28,117195  	72,410424  	0,093432  	0,047343  	-4190,255806  	1684,800149  	-0,053703  	-0,049989  	0,346043  	0,175343  	-4,815639  	9115,107039  	11896,963625  	1,725509  	-0,047942  
42,553000  	18,418432  	39,596901  	26,512122  	1256,670793  	80,022051  	73,461275  	0,004520  	0,008530  	0,003963  	0,004072  	0,004395  	-0,000002  	-0,000000  	25,309289  	21,719453  	23,146512  	25,086213  	32,028433  	30,005022  	31,805308  	33,077800  	40,213237  	38,518818  	42,696462  	66,999377  	28,959697  	27,562925  	28,109003  	72,403473  	0,064660  	0,032763  	-2902,210137  	25495,406815  	-0,018518  	-0,050020  	0,339294  	0,171923  	-4,728502  	9744,753206  	12129,386572  	1,759219  	-0,047969  
43,553000  	18,404908  	39,609492  	26,511200  	1256,670793  	80,020520  	73,450830  	0,004521  	0,008561  	0,003964  	0,004062  	0,004319  	0,000000  	-0,000000  	25,309947  	21,722112  	23,147417  	25,086535  	32,033811  	30,004961  	31,807887  	33,078586  	40,217920  	38,520037  	42,697189  	66,999637  	28,952629  	27,558995  	28,109574  	72,405533  	0,056919  	0,028841  	-2557,934348  	25484,931007  	-0,018511  	-0,049997  	0,278997  	0,141370  	-3,893460  	9811,076989  	12147,159344  	1,761797  	-0,047949  
44,554000  	18,398713  	39,617330  	26,510770  	1256,670793  	80,020458  	73,453200  	0,004509  	0,008549  	0,003963  	0,004018  	0,004391  	-0,000001  	-0,000000  	25,314573  	21,728456  	23,155484  	25,094662  	32,034407  	30,013607  	31,813292  	33,091267  	40,221568  	38,532800  	42,706489  	67,006306  	28,959398  	27,557601  	28,116423  	72,403962  	0,021161  	0,010722  	-951,587111  	25492,221823  	-0,018516  	-0,050013  	0,335642  	0,170072  	-4,682216  	9785,074806  	11893,454261  	1,725000  	-0,047963  
45,554000  	18,400001  	39,610171  	26,509632  	1256,670793  	80,024613  	73,458968  	0,004515  	0,008374  	0,003963  	0,004137  	0,004366  	-0,000000  	-0,000000  	25,319264  	21,723649  	23,154930  	25,099699  	32,032518  	30,010490  	31,811748  	33,092228  	40,217347  	38,532745  	42,702674  	67,003214  	28,958772  	27,558179  	28,114351  	72,402573  	0,117750  	0,059665  	-5293,065147  	25486,454291  	-0,018512  	-0,050000  	0,315961  	0,160100  	-4,406582  	9408,937012  	12013,196282  	1,742367  	-0,047952  
46,559000  	18,399755  	39,607887  	26,507234  	1256,670793  	80,027050  	73,468260  	0,004526  	0,008407  	0,003964  	0,004132  	0,004356  	-0,000001  	-0,000000  	25,313172  	21,723479  	23,156336  	25,091915  	32,036388  	30,009880  	31,807728  	33,087249  	40,218240  	38,528775  	42,704751  	67,009348  	28,965121  	27,551503  	28,115959  	72,398658  	0,113437  	0,057479  	-5098,697746  	25490,206744  	-0,018514  	-0,050008  	0,308604  	0,156372  	-4,299490  	9478,650170  	12252,390818  	1,777059  	-0,047959  
47,559000  	18,405552  	39,609461  	26,505206  	357,439972  	80,019864  	73,480295  	0,004519  	0,008569  	0,003964  	0,004171  	0,004315  	-0,000002  	-0,000000  	25,314292  	21,737196  	23,167461  	25,100621  	32,037752  	30,016018  	31,818164  	33,089994  	40,225579  	38,540334  	42,714043  	67,004812  	28,952589  	27,559075  	28,117988  	72,403847  	0,145518  	0,073735  	-6539,356051  	12426,991094  	-0,036425  	-0,050028  	0,275621  	0,139659  	-3,828731  	9827,743005  	12118,067640  	1,757577  	-0,047976  
48,565000  	18,399234  	39,609337  	26,504037  	-242,047242  	80,011054  	73,469382  	0,004510  	0,008338  	0,003965  	0,004080  	0,004364  	-0,000000  	-0,000000  	25,313432  	21,733519  	23,169682  	25,108890  	32,044317  	30,021111  	31,821819  	33,088862  	40,227256  	38,538224  	42,718118  	67,008547  	28,943405  	27,563686  	28,114501  	72,399810  	0,071745  	0,036354  	-3225,036833  	-27107,419352  	-0,102397  	-0,050003  	0,314281  	0,159248  	-4,367157  	9329,553066  	11919,587368  	1,728790  	-0,047954  
49,559000  	18,391383  	39,608134  	26,500933  	1256,670793  	80,002806  	73,461182  	0,004519  	0,008563  	0,003962  	0,004085  	0,004336  	0,000001  	-0,000000  	25,313740  	21,728444  	23,158098  	25,088138  	32,037558  	30,013264  	31,808375  	33,083565  	40,222895  	38,527406  	42,702124  	66,993086  	28,937661  	27,554289  	28,113141  	72,403453  	0,075396  	0,038204  	-3390,241180  	25480,946351  	-0,018508  	-0,049988  	0,292073  	0,147996  	-4,058533  	9816,269644  	12114,049878  	1,756994  	-0,047941  
50,558000  	18,399663  	39,614800  	26,499764  	1256,670793  	79,997182  	73,460247  	0,004523  	0,008276  	0,003961  	0,004086  	0,004357  	0,000000  	-0,000000  	25,313815  	21,732812  	23,166723  	25,102671  	32,034252  	30,015248  	31,817506  	33,090700  	40,226381  	38,531699  	42,711918  	67,002894  	28,927871  	27,552033  	28,113830  	72,409566  	0,076179  	0,038601  	-3425,183940  	25486,070015  	-0,018511  	-0,049999  	0,309186  	0,156667  	-4,293241  	9197,372414  	12184,477222  	1,767209  	-0,047950  
51,556000  	18,413924  	39,616929  	26,498197  	357,439972  	79,996651  	73,444158  	0,004508  	0,008542  	0,003961  	0,004104  	0,004379  	0,000000  	-0,000000  	25,307221  	21,721413  	23,154750  	25,099593  	32,038206  	30,018427  	31,823897  	33,091866  	40,223610  	38,532705  	42,714247  	67,011347  	28,929328  	27,539659  	28,110413  	72,399009  	0,090985  	0,046103  	-4088,524935  	12419,740789  	-0,036403  	-0,049994  	0,326601  	0,165491  	-4,545837  	9769,682900  	11881,619869  	1,723283  	-0,047946  
52,553000  	18,422020  	39,603412  	26,495860  	956,927186  	79,999776  	73,427633  	0,004514  	0,008488  	0,003963  	0,004131  	0,004303  	0,000001  	-0,000000  	25,322265  	21,728955  	23,175999  	25,099550  	32,039483  	30,018859  	31,820588  	33,092044  	40,239942  	38,529164  	42,709513  	67,006029  	28,928284  	27,526684  	28,114225  	72,411956  	0,112375  	0,056941  	-5044,588695  	22422,090151  	-0,022132  	-0,049982  	0,266339  	0,134956  	-3,718184  	9653,494776  	12004,715909  	1,741137  	-0,047936  
53,554000  	18,417849  	39,599925  	26,493770  	1256,670793  	79,997401  	73,418342  	0,004523  	0,008546  	0,003963  	0,004084  	0,004339  	0,000000  	-0,000000  	25,327219  	21,742484  	23,156392  	25,095199  	32,041347  	30,029530  	31,822074  	33,093219  	40,230876  	38,543544  	42,718931  	67,017563  	28,932076  	27,524269  	28,116411  	72,417663  	0,074643  	0,037822  	-3350,891446  	25484,845552  	-0,018510  	-0,049996  	0,294431  	0,149190  	-4,114681  	9779,878614  	12202,122895  	1,769768  	-0,047948  
54,551000  	18,410060  	39,597209  	26,492049  	1256,670793  	79,994777  	73,434929  	0,004520  	0,008462  	0,003963  	0,004097  	0,004354  	-0,000000  	-0,000000  	25,322196  	21,737001  	23,168476  	25,104826  	32,045632  	30,022105  	31,824562  	33,098819  	40,228143  	38,537527  	42,717879  	67,011151  	28,933438  	27,504425  	28,116449  	72,417055  	0,085064  	0,043102  	-3819,603505  	25488,874807  	-0,018513  	-0,050004  	0,306369  	0,155240  	-4,269025  	9596,916771  	12132,479331  	1,759667  	-0,047955  
55,553000  	18,401779  	39,586933  	26,491495  	1256,670793  	79,990840  	73,453075  	0,004507  	0,008350  	0,003965  	0,004112  	0,004336  	0,000001  	-0,000000  	25,328175  	21,732765  	23,158193  	25,099764  	32,049237  	30,027746  	31,825545  	33,096788  	40,230802  	38,545082  	42,710412  	67,007885  	28,928092  	27,490990  	28,112736  	72,406828  	0,097007  	0,049154  	-4355,484496  	25482,250223  	-0,018508  	-0,049990  	0,292413  	0,148168  	-4,060856  	9356,542136  	11843,327560  	1,717729  	-0,047943  
56,554000  	18,402822  	39,578107  	26,489528  	1256,670793  	79,982342  	73,436239  	0,004520  	0,008192  	0,003964  	0,004118  	0,004351  	-0,000000  	-0,000000  	25,317592  	21,713931  	23,151851  	25,088212  	32,026835  	30,010524  	31,810939  	33,080159  	40,218319  	38,518587  	42,703741  	66,993794  	28,915251  	27,467583  	28,091734  	72,404922  	0,101897  	0,051632  	-4572,922437  	25487,129188  	-0,018512  	-0,050000  	0,304032  	0,154056  	-4,227589  	9016,477020  	12121,287498  	1,758044  	-0,047952  
57,552000  	18,416807  	39,579187  	26,488237  	1256,670793  	79,978218  	73,413166  	0,004522  	0,008293  	0,003965  	0,004080  	0,004324  	0,000001  	-0,000000  	25,318255  	21,722729  	23,161229  	25,102610  	32,036080  	30,014132  	31,823615  	33,086209  	40,231316  	38,537288  	42,718665  	67,001050  	28,928543  	27,471035  	28,110087  	72,410534  	0,071143  	0,036049  	-3190,774080  	25483,645341  	-0,018509  	-0,049993  	0,282763  	0,143278  	-3,943202  	9232,945635  	12181,349158  	1,766755  	-0,047945  
58,554000  	18,435452  	39,581532  	26,487069  	1256,670793  	79,983842  	73,390905  	0,004507  	0,008411  	0,003966  	0,004084  	0,004302  	0,000000  	-0,000000  	25,330501  	21,740641  	23,170559  	25,105836  	32,052739  	30,032936  	31,834137  	33,094391  	40,238317  	38,549219  	42,729464  	67,009952  	28,942788  	27,474106  	28,112274  	72,420932  	0,074428  	0,037713  	-3335,547282  	25484,220665  	-0,018510  	-0,049994  	0,265124  	0,134340  	-3,712913  	9488,693783  	11844,132525  	1,717846  	-0,047946  
59,553000  	18,454037  	39,580329  	26,486146  	1256,670793  	79,990122  	73,369672  	0,004515  	0,008359  	0,003963  	0,004092  	0,004305  	-0,000001  	-0,000000  	25,322233  	21,740175  	23,168014  	25,098867  	32,041856  	30,019195  	31,824214  	33,101602  	40,236421  	38,536069  	42,726170  	67,009971  	28,929323  	27,454556  	28,108246  	72,412135  	0,080955  	0,041021  	-3624,666157  	25492,253655  	-0,018516  	-0,050011  	0,267912  	0,135753  	-3,767597  	9375,445097  	12013,443420  	1,742403  	-0,047961  
60,553000  	18,461029  	39,583229  	26,484732  	1256,670793  	79,988060  	73,368113  	0,004525  	0,008478  	0,003964  	0,004124  	0,004334  	-0,000001  	-0,000000  	25,322877  	21,742986  	23,166168  	25,106157  	32,048714  	30,021103  	31,827604  	33,102246  	40,236678  	38,537912  	42,723901  	67,007840  	28,920242  	27,455404  	28,114778  	72,422035  	0,106967  	0,054201  	-4788,365764  	25493,553655  	-0,018517  	-0,050014  	0,290545  	0,147221  	-4,085577  	9632,910216  	12238,981802  	1,775114  	-0,047964  
61,553000  	18,462869  	39,580915  	26,482365  	57,696365  	79,987872  	73,371263  	0,004519  	0,008343  	0,003964  	0,004097  	0,004353  	0,000001  	-0,000000  	25,320059  	21,735282  	23,157893  	25,097694  	32,042322  	30,017618  	31,817854  	33,093013  	40,232417  	38,533581  	42,721013  	67,002786  	28,916968  	27,444393  	28,108346  	72,417182  	0,085136  	0,043139  	-3810,384863  	1686,651378  	-0,053709  	-0,049993  	0,305641  	0,154871  	-4,295692  	9342,186639  	12112,030405  	1,756701  	-0,047946  
62,653000  	18,455877  	39,564806  	26,481935  	1256,670793  	79,987685  	73,385792  	0,004509  	0,008582  	0,003960  	0,004073  	0,004354  	-0,000000  	-0,000000  	25,312806  	21,732226  	23,156676  	25,094560  	32,040822  	30,017229  	31,817687  	33,089683  	40,225761  	38,527206  	42,710610  	67,003413  	28,908345  	27,431856  	28,103912  	72,409861  	0,066132  	0,033509  	-2958,528782  	25488,948308  	-0,018513  	-0,050004  	0,306497  	0,155304  	-4,298139  	9857,402685  	11898,587676  	1,725744  	-0,047955  
63,578000  	18,447413  	39,550826  	26,480367  	1256,670793  	79,990934  	73,398855  	0,004514  	0,008022  	0,003963  	0,004107  	0,004355  	-0,000000  	-0,000000  	25,315167  	21,736732  	23,158186  	25,095514  	32,039735  	30,018863  	31,821326  	33,093211  	40,230276  	38,525770  	42,712840  	67,008999  	28,913774  	27,429449  	28,107524  	72,411790  	0,092988  	0,047118  	-4158,926125  	25490,038645  	-0,018514  	-0,050006  	0,307177  	0,155649  	-4,301284  	8649,394537  	12005,852745  	1,741302  	-0,047957  
64,553000  	18,449498  	39,551567  	26,479753  	1256,670793  	80,000307  	73,406151  	0,004522  	0,008419  	0,003966  	0,004159  	0,004295  	-0,000001  	-0,000000  	25,317193  	21,735544  	23,158289  	25,099898  	32,042220  	30,020182  	31,822826  	33,095200  	40,227249  	38,532432  	42,718776  	67,009070  	28,916329  	27,423410  	28,107229  	72,415675  	0,135262  	0,068538  	-6049,238074  	25491,788716  	-0,018515  	-0,050010  	0,259648  	0,131565  	-3,636900  	9504,168459  	12178,793042  	1,766385  	-0,047960  
65,555000  	18,456889  	39,552030  	26,479015  	1256,670793  	80,007305  	73,379275  	0,004507  	0,008425  	0,003967  	0,004116  	0,004348  	-0,000001  	-0,000000  	25,318754  	21,735981  	23,163016  	25,106830  	32,045432  	30,015979  	31,824588  	33,099067  	40,229345  	38,537957  	42,724706  	67,011948  	28,917793  	27,420476  	28,109586  	72,417476  	0,100765  	0,051058  	-4504,980504  	25490,205607  	-0,018514  	-0,050006  	0,301571  	0,152808  	-4,245805  	9517,293000  	11850,423959  	1,718759  	-0,047957  
66,552000  	18,457257  	39,546907  	26,478154  	657,183579  	80,008867  	73,372229  	0,004513  	0,008404  	0,003963  	0,004082  	0,004263  	0,000000  	-0,000000  	25,317895  	21,735785  	23,161728  	25,104216  	32,041405  	30,015674  	31,825164  	33,098341  	40,233645  	38,536468  	42,725200  	67,008889  	28,917963  	27,414570  	28,109756  	72,413989  	0,073035  	0,037007  	-3264,368159  	18390,009354  	-0,027534  	-0,049998  	0,234573  	0,118860  	-3,306828  	9473,790015  	11971,931253  	1,736382  	-0,047950  
67,551000  	18,460845  	39,552277  	26,478154  	657,183579  	80,014709  	73,382487  	0,004521  	0,008575  	0,003965  	0,004151  	0,004348  	0,000001  	-0,000000  	25,315795  	21,734817  	23,160652  	25,100706  	32,038734  	30,025696  	31,827844  	33,096671  	40,231267  	38,534806  	42,723867  	67,005423  	28,918167  	27,408542  	28,111294  	72,414188  	0,128979  	0,065354  	-5765,320729  	18387,360334  	-0,027530  	-0,049990  	0,301938  	0,152994  	-4,253656  	9841,519104  	12162,354817  	1,764000  	-0,047943  
68,556000  	18,459925  	39,563571  	26,478400  	1256,670793  	80,024520  	73,385667  	0,004521  	0,008363  	0,003962  	0,004075  	0,004357  	0,000001  	-0,000000  	25,317670  	21,733367  	23,163224  	25,097683  	32,036666  	30,022549  	31,824042  	33,095685  	40,230960  	38,532331  	42,722734  	67,008909  	28,914923  	27,406988  	28,111525  	72,415326  	0,067068  	0,033984  	-2999,673577  	25483,370131  	-0,018509  	-0,049991  	0,308829  	0,156486  	-4,355091  	9385,266572  	12152,490470  	1,762570  	-0,047944  
69,553000  	18,450357  	39,562954  	26,477232  	1256,670793  	80,029050  	73,394553  	0,004507  	0,008452  	0,003964  	0,004144  	0,004346  	-0,000000  	-0,000000  	25,313498  	21,726072  	23,158282  	25,087768  	32,031435  	30,008560  	31,813103  	33,084443  	40,225495  	38,527240  	42,714004  	67,003224  	28,902415  	27,394710  	28,101408  	72,407980  	0,123652  	0,062655  	-5532,775854  	25489,242380  	-0,018513  	-0,050004  	0,300109  	0,152067  	-4,229352  	9575,938870  	11839,832319  	1,717222  	-0,047955  
70,554000  	18,436556  	39,556844  	26,478215  	1256,670793  	80,033049  	73,400414  	0,004515  	0,008381  	0,003961  	0,004156  	0,004423  	-0,000001  	-0,000000  	25,309615  	21,729062  	23,161013  	25,089683  	32,034437  	30,011453  	31,817164  	33,084805  	40,221707  	38,528257  	42,713518  	67,001096  	28,914571  	27,386337  	28,103639  	72,412943  	0,133421  	0,067605  	-5972,068191  	25491,733948  	-0,018515  	-0,050010  	0,361016  	0,182929  	-5,086271  	9422,569499  	12017,157555  	1,742941  	-0,047960  
71,553000  	18,416592  	39,559714  	26,478215  	357,439972  	80,039172  	73,403158  	0,004521  	0,008360  	0,003962  	0,004106  	0,004362  	0,000000  	-0,000000  	25,318246  	21,737360  	23,164889  	25,097306  	32,042332  	30,021295  	31,825908  	33,095961  	40,225877  	38,530347  	42,719971  	67,007930  	28,932569  	27,385490  	28,102672  	72,425957  	0,092647  	0,046945  	-4151,477689  	12421,687522  	-0,036406  	-0,049998  	0,313312  	0,158757  	-4,416435  	9378,966764  	12153,118907  	1,762661  	-0,047950  
72,553000  	18,410581  	39,566750  	26,477724  	956,927186  	80,038985  	73,414445  	0,004512  	0,008539  	0,003964  	0,004155  	0,004315  	0,000000  	-0,000000  	25,321469  	21,735651  	23,165235  	25,097098  	32,045149  	30,029682  	31,823885  	33,084711  	40,227090  	38,526205  	42,725699  	67,015302  	28,920389  	27,377932  	28,093905  	72,424623  	0,132089  	0,066930  	-5922,488674  	22428,348092  	-0,022138  	-0,049996  	0,275387  	0,139541  	-3,875148  	9763,808975  	11949,010944  	1,733058  	-0,047948  
73,555000  	18,400798  	39,569250  	26,476525  	57,696365  	80,038079  	73,428912  	0,004510  	0,008440  	0,003963  	0,004063  	0,004393  	0,000002  	-0,000000  	25,318608  	21,725702  	23,162528  	25,088501  	32,033318  	30,010397  	31,813745  	33,089044  	40,221906  	38,531008  	42,711777  	67,002038  	28,914077  	27,365451  	28,096419  	72,417769  	0,057927  	0,029352  	-2598,774173  	1686,481599  	-0,053694  	-0,049977  	0,337748  	0,171139  	-4,741645  	9551,480335  	11918,951869  	1,728698  	-0,047931  
74,552000  	18,399142  	39,572274  	26,476955  	1256,670793  	80,041578  	73,442194  	0,004520  	0,008294  	0,003962  	0,004205  	0,004393  	-0,000001  	-0,000000  	25,324273  	21,744895  	23,172183  	25,108692  	32,046229  	30,025036  	31,828615  	33,096961  	40,227989  	38,529119  	42,727699  	67,009007  	28,931156  	27,373055  	28,115315  	72,429136  	0,172448  	0,087381  	-7738,312135  	25492,067774  	-0,018515  	-0,050010  	0,337776  	0,171154  	-4,735026  	9235,371468  	12122,657350  	1,758243  	-0,047960  
75,552000  	18,407882  	39,583939  	26,476217  	357,439972  	80,049732  	73,448804  	0,004522  	0,008555  	0,003960  	0,004071  	0,004325  	0,000000  	-0,000000  	25,332377  	21,734011  	23,163051  	25,106772  	32,036980  	30,023132  	31,822865  	33,091951  	40,223858  	38,536488  	42,721730  	67,007390  	28,924423  	27,367941  	28,112937  	72,424648  	0,064052  	0,032456  	-2874,625448  	12421,305840  	-0,036405  	-0,049996  	0,283339  	0,143570  	-3,972844  	9798,492230  	12183,580464  	1,767079  	-0,047948  
76,552000  	18,414752  	39,584124  	26,475172  	956,927186  	80,048358  	73,446746  	0,004509  	0,008528  	0,003965  	0,004077  	0,004402  	0,000000  	-0,000000  	25,318704  	21,730231  	23,168759  	25,093761  	32,032632  	30,014037  	31,811182  	33,091069  	40,222144  	38,519976  	42,719778  	67,001128  	28,923181  	27,360088  	28,088935  	72,426983  	0,069074  	0,035000  	-3099,022246  	22427,774817  	-0,022137  	-0,049995  	0,345038  	0,174834  	-4,838470  	9740,024636  	11892,522197  	1,724865  	-0,047947  
77,554000  	18,438151  	39,575082  	26,474465  	1256,670793  	80,050732  	73,449708  	0,004513  	0,008204  	0,003963  	0,004041  	0,004331  	-0,000000  	-0,000000  	25,326633  	21,736086  	23,169009  	25,105543  	32,031680  	30,021298  	31,820383  	33,080842  	40,227785  	38,530427  	42,721574  	67,004970  	28,926526  	27,345771  	28,097958  	72,423374  	0,040053  	0,020295  	-1794,228816  	25487,687596  	-0,018512  	-0,050001  	0,288468  	0,146169  	-4,044828  	9042,248576  	11973,061027  	1,736546  	-0,047952  
78,552000  	18,455448  	39,582057  	26,473604  	1256,670793  	80,049857  	73,453512  	0,004527  	0,008554  	0,003963  	0,004078  	0,004342  	-0,000001  	-0,000000  	25,309180  	21,734566  	23,164420  	25,107825  	32,033728  	30,024198  	31,809417  	33,072560  	40,222176  	38,519343  	42,716299  	66,995035  	28,922288  	27,344399  	28,087755  	72,417529  	0,069684  	0,035309  	-3120,038742  	25493,025462  	-0,018516  	-0,050012  	0,296843  	0,150412  	-4,159306  	9795,453748  	12283,833866  	1,781619  	-0,047962  
79,553000  	18,460784  	39,588908  	26,472313  	1256,670793  	80,045265  	73,445125  	0,004517  	0,008284  	0,003966  	0,004086  	0,004371  	-0,000000  	-0,000000  	25,321756  	21,742093  	23,172902  	25,112602  	32,049242  	30,026617  	31,821228  	33,088059  	40,219609  	38,522011  	42,723924  	66,999647  	28,932766  	27,367551  	28,102152  	72,426614  	0,075940  	0,038479  	-3400,409608  	25487,794566  	-0,018512  	-0,050001  	0,320126  	0,162210  	-4,488126  	9214,852700  	12062,976990  	1,749587  	-0,047952  
80,553000  	18,460661  	39,583168  	26,472313  	1256,670793  	80,041516  	73,450425  	0,004510  	0,008676  	0,003966  	0,004113  	0,004384  	-0,000001  	-0,000000  	25,314319  	21,741294  	23,163339  	25,106377  	32,029860  	30,024061  	31,822857  	33,087814  	40,219366  	38,528108  	42,717669  	66,997989  	28,928859  	27,374243  	28,101111  	72,429468  	0,098562  	0,049942  	-4412,204192  	25495,277119  	-0,018518  	-0,050017  	0,330076  	0,167252  	-4,621271  	10058,735490  	11914,785824  	1,728094  	-0,047966  
81,553000  	18,450817  	39,580236  	26,472006  	1256,670793  	80,035798  	73,449459  	0,004518  	0,008514  	0,003966  	0,004072  	0,004314  	0,000000  	-0,000000  	25,329663  	21,743558  	23,165691  	25,099316  	32,047591  	30,017574  	31,823935  	33,096847  	40,230432  	38,528559  	42,728871  	67,011293  	28,942207  	27,389112  	28,093008  	72,428744  	0,065161  	0,033018  	-2917,941690  	25485,891415  	-0,018511  	-0,049996  	0,275094  	0,139392  	-3,848724  	9710,148478  	12091,277852  	1,753692  	-0,047948  
82,554000  	18,449774  	39,590173  	26,471576  	1256,670793  	80,028362  	73,455819  	0,004524  	0,008302  	0,003966  	0,004046  	0,004352  	0,000001  	-0,000000  	25,324102  	21,747194  	23,166631  	25,098206  	32,037396  	30,018208  	31,816941  	33,089666  	40,227082  	38,531071  	42,718819  	67,011209  	28,936036  	27,392542  	28,090420  	72,423290  	0,043681  	0,022133  	-1957,061339  	25482,864911  	-0,018509  	-0,049990  	0,305045  	0,154569  	-4,258817  	9253,661781  	12219,104824  	1,772231  	-0,047943  
83,552000  	18,459251  	39,592580  	26,471207  	1256,670793  	80,028925  	73,469694  	0,004507  	0,008634  	0,003967  	0,004079  	0,004369  	-0,000001  	-0,000000  	25,322443  	21,741116  	23,160844  	25,099625  	32,036689  	30,021130  	31,815457  	33,094481  	40,225479  	38,536517  	42,724066  	67,003030  	28,938783  	27,378033  	28,098938  	72,423952  	0,070967  	0,035960  	-3178,527811  	25491,830166  	-0,018515  	-0,050009  	0,318635  	0,161455  	-4,439548  	9968,662739  	11842,162480  	1,717560  	-0,047960  
84,553000  	18,466243  	39,585482  	26,471145  	1256,670793  	80,032986  	73,484036  	0,004511  	0,008415  	0,003962  	0,004115  	0,004349  	-0,000001  	-0,000000  	25,326181  	21,741535  	23,162468  	25,109291  	32,034817  	30,029553  	31,821592  	33,095577  	40,223803  	38,537098  	42,736639  	66,999923  	28,952582  	27,379480  	28,097881  	72,430872  	0,099406  	0,050370  	-4449,286580  	25490,949329  	-0,018515  	-0,050008  	0,302977  	0,153520  	-4,214770  	9497,510684  	11938,143921  	1,731481  	-0,047958  
85,555000  	18,449130  	39,584155  	26,471914  	1256,670793  	80,035579  	73,477177  	0,004525  	0,008340  	0,003963  	0,004090  	0,004345  	0,000001  	-0,000000  	25,329431  	21,746350  	23,172281  	25,103219  	32,043531  	30,026296  	31,828554  	33,097306  	40,220318  	38,530765  	42,733700  	67,004225  	28,953163  	27,378552  	28,099051  	72,424644  	0,079824  	0,040448  	-3575,518493  	25482,090595  	-0,018508  	-0,049988  	0,299514  	0,151766  	-4,172608  	9334,298614  	12227,924130  	1,773510  	-0,047941  
86,554000  	18,424841  	39,594833  	26,471545  	657,183579  	80,042765  	73,489025  	0,004519  	0,008554  	0,003962  	0,004043  	0,004325  	-0,000001  	-0,000000  	25,326831  	21,743242  	23,165286  	25,104317  	32,044402  	30,029273  	31,826960  	33,100758  	40,236792  	38,536276  	42,725245  	67,005932  	28,956349  	27,374838  	28,099700  	72,428659  	0,041072  	0,020811  	-1842,750719  	18395,647082  	-0,027542  	-0,050015  	0,283845  	0,143826  	-3,951516  	9796,378381  	12110,632309  	1,756499  	-0,047964  
87,553000  	18,409937  	39,606406  	26,472375  	-242,047242  	80,044390  	73,464549  	0,004506  	0,008477  	0,003964  	0,004132  	0,004338  	0,000002  	-0,000000  	25,316820  	21,734790  	23,162948  	25,104142  	32,043541  	30,018488  	31,822931  	33,087189  	40,229133  	38,527814  	42,731721  	66,999575  	28,944900  	27,362009  	28,090606  	72,411513  	0,113252  	0,057385  	-5087,558416  	-27095,738999  	-0,102365  	-0,049980  	0,293853  	0,148898  	-4,107126  	9630,819005  	11818,048846  	1,714063  	-0,047934  
88,552000  	18,405030  	39,612578  	26,472928  	956,927186  	80,039766  	73,448586  	0,004516  	0,008276  	0,003965  	0,004100  	0,004338  	-0,000000  	-0,000000  	25,318088  	21,740282  	23,166645  	25,103995  	32,042369  	30,023792  	31,824339  	33,090266  	40,228479  	38,528762  	42,734970  	67,005146  	28,947895  	27,357571  	28,090881  	72,412282  	0,087689  	0,044433  	-3941,297499  	22432,420111  	-0,022142  	-0,050006  	0,294179  	0,149063  	-4,118751  	9196,998882  	12038,785684  	1,746078  	-0,047957  
89,552000  	18,406502  	39,623009  	26,472959  	1256,670793  	80,038704  	73,450145  	0,004524  	0,008564  	0,003962  	0,004056  	0,004384  	0,000002  	-0,000000  	25,326264  	21,747124  	23,178228  	25,114367  	32,043709  	30,031518  	31,835655  	33,101714  	40,239361  	38,539606  	42,736400  	67,007391  	28,957671  	27,365152  	28,100168  	72,417478  	0,052016  	0,026357  	-2338,904288  	25478,366831  	-0,018505  	-0,049980  	0,329999  	0,167213  	-4,618420  	9817,286951  	12216,838213  	1,771903  	-0,047934  
90,553000  	18,404233  	39,629057  	26,474311  	1256,670793  	80,040578  	73,455320  	0,004509  	0,008498  	0,003961  	0,004077  	0,004313  	0,000001  	-0,000000  	25,318935  	21,737773  	23,169195  	25,111772  	32,040178  	30,022770  	31,825070  	33,097288  	40,231344  	38,534291  	42,730385  	67,002172  	28,949338  	27,357469  	28,092435  	72,408683  	0,068915  	0,034920  	-3099,996346  	25483,009688  	-0,018509  	-0,049990  	0,274214  	0,138946  	-3,835785  	9675,364059  	11898,905426  	1,725790  	-0,047943  
91,553000  	18,386109  	39,617670  	26,473481  	1256,670793  	80,038860  	73,459872  	0,004514  	0,008464  	0,003960  	0,004084  	0,004289  	-0,000000  	-0,000000  	25,324501  	21,732633  	23,164567  	25,108166  	32,040738  	30,024465  	31,820675  	33,099176  	40,224786  	38,527797  	42,729552  	67,006401  	28,946913  	27,352536  	28,095739  	72,400128  	0,074894  	0,037949  	-3370,003047  	25488,665715  	-0,018513  	-0,050003  	0,254754  	0,129086  	-3,560179  	9601,378634  	12011,409825  	1,742108  	-0,047954  
92,554000  	18,372370  	39,609584  	26,473051  	1256,670793  	80,035236  	73,454946  	0,004523  	0,008267  	0,003963  	0,004069  	0,004372  	-0,000001  	-0,000000  	25,335046  	21,739547  	23,171198  	25,108032  	32,045004  	30,032759  	31,827635  	33,104207  	40,230767  	38,534115  	42,735888  	67,015880  	28,949027  	27,348468  	28,100285  	72,398105  	0,062314  	0,031575  	-2804,696288  	25493,144161  	-0,018516  	-0,050012  	0,320753  	0,162528  	-4,483389  	9177,996171  	12198,500554  	1,769243  	-0,047962  
93,552000  	18,373106  	39,611158  	26,474711  	57,696365  	80,033299  	73,466420  	0,004521  	0,008446  	0,003961  	0,004100  	0,004391  	0,000001  	-0,000000  	25,328371  	21,748461  	23,168238  	25,105068  	32,049942  	30,031614  	31,830141  	33,098271  	40,232766  	38,538804  	42,740945  	67,011724  	28,946822  	27,340846  	28,097507  	72,396253  	0,087537  	0,044355  	-3940,102332  	1687,095606  	-0,053710  	-0,049994  	0,335706  	0,170105  	-4,682844  	9563,033638  	12145,224605  	1,761516  	-0,047946  
94,553000  	18,378442  	39,605603  	26,475203  	1256,670793  	80,030237  	73,460745  	0,004505  	0,008586  	0,003964  	0,004103  	0,004359  	-0,000003  	-0,000000  	25,332550  	21,755744  	23,167224  	25,109333  	32,055847  	30,030798  	31,838052  	33,100747  	40,232715  	38,539554  	42,747075  	67,004802  	28,946466  	27,343343  	28,104731  	72,394707  	0,090324  	0,045768  	-4063,495055  	25503,657173  	-0,018524  	-0,050036  	0,310788  	0,157479  	-4,336980  	9864,603072  	11813,550930  	1,713411  	-0,047982  
95,555000  	18,378902  	39,598567  	26,475756  	357,439972  	80,027769  	73,446902  	0,004513  	0,008300  	0,003964  	0,004081  	0,004303  	-0,000000  	-0,000000  	25,339590  	21,751565  	23,170550  	25,112930  	32,052052  	30,026567  	31,837432  	33,108821  	40,233123  	38,540783  	42,748338  	67,007607  	28,941347  	27,345038  	28,099939  	72,395979  	0,072438  	0,036705  	-3257,681285  	12423,306429  	-0,036411  	-0,050005  	0,266490  	0,135032  	-3,725237  	9248,532796  	11974,903973  	1,736813  	-0,047956  
96,553000  	18,380742  	39,602641  	26,477232  	-242,047242  	80,021833  	73,446465  	0,004525  	0,008527  	0,003963  	0,004073  	0,004401  	-0,000002  	-0,000000  	25,330184  	21,742350  	23,170836  	25,111297  	32,047643  	30,020141  	31,828010  	33,104270  	40,233622  	38,538660  	42,743775  	67,006401  	28,942978  	27,350059  	28,095904  	72,395347  	0,065466  	0,033172  	-2944,426039  	-27115,999920  	-0,102439  	-0,050022  	0,344043  	0,174329  	-4,805324  	9739,079488  	12238,254509  	1,775009  	-0,047970  
97,553000  	18,384544  	39,600758  	26,477508  	1256,670793  	80,010210  	73,458064  	0,004507  	0,008364  	0,003964  	0,004108  	0,004439  	-0,000002  	-0,000000  	25,333188  	21,744697  	23,172529  	25,110578  	32,049514  	30,025207  	31,826971  	33,098915  	40,240965  	38,539545  	42,744395  	67,007344  	28,950794  	27,359075  	28,106063  	72,391367  	0,094525  	0,047896  	-4250,276799  	25497,290788  	-0,018519  	-0,050022  	0,373982  	0,189499  	-5,205057  	9387,207096  	11856,418827  	1,719628  	-0,047970  
98,565000  	18,400307  	39,595512  	26,477939  	657,183579  	80,006149  	73,454946  	0,004512  	0,008618  	0,003963  	0,004155  	0,004318  	0,000001  	-0,000000  	25,325756  	21,743015  	23,177383  	25,108173  	32,042450  	30,031251  	31,829979  	33,098560  	40,244597  	38,542581  	42,752767  	67,007168  	28,958720  	27,360937  	28,099645  	72,388988  	0,132283  	0,067029  	-5942,169787  	18386,418668  	-0,027529  	-0,049987  	0,278456  	0,141096  	-3,874974  	9934,391926  	11958,875291  	1,734488  	-0,047941  
99,554000  	18,424320  	39,592179  	26,478215  	657,183579  	80,005899  	73,444626  	0,004522  	0,008490  	0,003965  	0,004115  	0,004375  	0,000000  	-0,000000  	25,329727  	21,747591  	23,178846  	25,112125  	32,042811  	30,036710  	31,831992  	33,102235  	40,239652  	38,543268  	42,753396  	67,008576  	28,968585  	27,353068  	28,097246  	72,383486  	0,099831  	0,050585  	-4478,616965  	18390,327268  	-0,027534  	-0,049999  	0,323083  	0,163709  	-4,502906  	9659,069452  	12178,221094  	1,766302  	-0,047951  
100,553000  	18,433643  	39,588661  	26,478830  	57,696365  	80,005399  	73,456910  	0,004521  	0,008490  	0,003965  	0,004149  	0,004339  	0,000000  	-0,000000  	25,327562  	21,740459  	23,170184  	25,106097  	32,044558  	30,029670  	31,827274  	33,100318  	40,237856  	38,543510  	42,745283  	67,003831  	28,971768  	27,357986  	28,081149  	72,385761  	0,127439  	0,064574  	-5713,688999  	1687,013865  	-0,053715  	-0,049999  	0,294903  	0,149430  	-4,102152  	9658,599000  	12159,177325  	1,763540  	-0,047950  
101,555000  	18,444070  	39,583075  	26,479107  	1256,670793  	80,009367  	73,443472  	0,004508  	0,008444  	0,003962  	0,004085  	0,004390  	-0,000001  	-0,000000  	25,332214  	21,746764  	23,171484  	25,104794  	32,045737  	30,035982  	31,826892  	33,097788  	40,235397  	38,543644  	42,744261  	67,010723  	28,986396  	27,361948  	28,102219  	72,385586  	0,075686  	0,038351  	-3390,799208  	25491,555779  	-0,018515  	-0,050009  	0,335062  	0,169779  	-4,673151  	9558,234323  	11865,499393  	1,720945  	-0,047959  
102,553000  	18,457993  	39,573385  	26,479537  	1256,670793  	80,016928  	73,449209  	0,004512  	0,008269  	0,003963  	0,004124  	0,004385  	0,000000  	-0,000000  	25,333286  	21,744546  	23,179559  	25,107153  	32,051179  	30,039510  	31,833494  	33,110824  	40,251205  	38,543350  	42,746702  	67,013724  	28,983371  	27,363025  	28,101953  	72,391216  	0,107165  	0,054301  	-4795,704945  	25485,194149  	-0,018510  	-0,049995  	0,331366  	0,167906  	-4,622886  	9181,668524  	11962,179883  	1,734968  	-0,047948  
103,557000  	18,460477  	39,575144  	26,478800  	1256,670793  	80,015584  	73,449147  	0,004526  	0,008476  	0,003962  	0,004107  	0,004349  	0,000000  	-0,000000  	25,323837  	21,739545  	23,164482  	25,099022  	32,048261  	30,030259  	31,822581  	33,102782  	40,238657  	38,545888  	42,743820  	67,002243  	28,980572  	27,362247  	28,093631  	72,386556  	0,093307  	0,047279  	-4175,405425  	25484,883934  	-0,018510  	-0,049995  	0,302839  	0,153451  	-4,224081  	9628,597624  	12255,102278  	1,777452  	-0,047947  
104,554000  	18,454712  	39,579341  	26,479845  	1256,670793  	80,011898  	73,436550  	0,004513  	0,008590  	0,003962  	0,004121  	0,004396  	-0,000000  	-0,000000  	25,335365  	21,756440  	23,174642  	25,112263  	32,053718  	30,035345  	31,827879  	33,111529  	40,233375  	38,541036  	42,743820  	67,012563  	28,993587  	27,352746  	28,106216  	72,377534  	0,104702  	0,053053  	-4687,542819  	25487,675873  	-0,018512  	-0,050001  	0,339649  	0,172103  	-4,743937  	9874,437280  	11988,383600  	1,738768  	-0,047952  
105,555000  	18,442383  	39,571564  	26,478892  	1256,670793  	80,009617  	73,442474  	0,004511  	0,008523  	0,003961  	0,004074  	0,004345  	0,000001  	-0,000000  	25,327942  	21,743672  	23,178077  	25,107159  	32,042460  	30,031168  	31,829897  	33,094789  	40,238348  	38,539867  	42,736445  	67,003494  	28,990716  	27,353553  	28,088162  	72,397786  	0,066380  	0,033635  	-2972,506568  	25480,715093  	-0,018507  	-0,049986  	0,299683  	0,151852  	-4,180512  	9729,806284  	11926,005902  	1,729721  	-0,047939  
106,553000  	18,426743  	39,573416  	26,478646  	1256,670793  	80,008492  	73,446840  	0,004521  	0,008430  	0,003967  	0,004143  	0,004373  	-0,000001  	-0,000000  	25,327206  	21,736271  	23,183268  	25,107691  	32,049808  	30,041234  	31,832466  	33,105645  	40,243895  	38,541923  	42,746093  	67,016885  	28,986588  	27,348976  	28,098162  	72,394411  	0,122402  	0,062022  	-5485,707868  	25492,991052  	-0,018516  	-0,050013  	0,321498  	0,162906  	-4,481079  	9528,665197  	12147,462971  	1,761841  	-0,047962  
107,556000  	18,412206  	39,585081  	26,478185  	1256,670793  	80,005618  	73,450425  	0,004522  	0,008523  	0,003965  	0,004130  	0,004394  	-0,000002  	-0,000000  	25,327648  	21,727924  	23,158681  	25,098019  	32,037953  	30,025017  	31,823344  	33,086788  	40,224732  	38,535159  	42,736964  	67,007831  	28,975707  	27,339331  	28,091457  	72,407517  	0,112187  	0,056846  	-5034,136130  	25495,967995  	-0,018518  	-0,050019  	0,338220  	0,171379  	-4,709510  	9730,144443  	12181,342097  	1,766754  	-0,047968  
108,556000  	18,400614  	39,589772  	26,477263  	1256,670793  	80,004056  	73,452171  	0,004511  	0,008445  	0,003962  	0,004130  	0,004339  	0,000000  	-0,000000  	25,335724  	21,736304  	23,173724  	25,102168  	32,039838  	30,024297  	31,820444  	33,097718  	40,235173  	38,538491  	42,748851  	67,015602  	28,977339  	27,346139  	28,094618  	72,399743  	0,111713  	0,056606  	-5016,716521  	25485,389080  	-0,018511  	-0,049996  	0,294742  	0,149348  	-4,102028  	9561,603889  	11930,630918  	1,730392  	-0,047948  
109,552000  	18,395953  	39,590142  	26,476525  	1256,670793  	80,005868  	73,457877  	0,004512  	0,008224  	0,003963  	0,004081  	0,004387  	0,000001  	-0,000000  	25,323221  	21,741193  	23,168168  	25,101742  	32,042990  	30,016450  	31,825700  	33,101608  	40,234016  	38,545969  	42,746325  	67,015958  	28,982640  	27,343439  	28,099703  	72,399401  	0,072365  	0,036668  	-3250,459378  	25481,995524  	-0,018508  	-0,049988  	0,333137  	0,168803  	-4,633643  	9084,889185  	11960,492281  	1,734723  	-0,047941  
110,556000  	18,393377  	39,593599  	26,477570  	1256,670793  	80,008805  	73,471159  	0,004525  	0,008557  	0,003963  	0,004070  	0,004414  	-0,000001  	-0,000000  	25,324274  	21,731294  	23,158488  	25,097060  	32,043838  	30,021134  	31,822493  	33,096119  	40,236532  	38,535770  	42,732861  	67,002421  	28,973897  	27,329343  	28,085359  	72,399981  	0,063488  	0,032170  	-2852,579205  	25490,952281  	-0,018515  	-0,050008  	0,354379  	0,179567  	-4,921323  	9802,944896  	12244,263499  	1,775880  	-0,047958  
111,552000  	18,380588  	39,596931  	26,477662  	357,439972  	80,009554  	73,447027  	0,004514  	0,008435  	0,003961  	0,004126  	0,004354  	-0,000002  	-0,000000  	25,327069  	21,730184  	23,164491  	25,103625  	32,045630  	30,018802  	31,819294  	33,092352  	40,234154  	38,536668  	42,742886  	67,002898  	28,976620  	27,320480  	28,093172  	72,404244  	0,108464  	0,054959  	-4877,060503  	12426,851040  	-0,036421  	-0,050022  	0,306435  	0,155273  	-4,271690  	9538,767528  	12007,695690  	1,741569  	-0,047970  
112,553000  	18,345444  	39,596931  	26,477908  	956,927186  	80,007867  	73,434368  	0,004506  	0,008573  	0,003963  	0,004166  	0,004347  	0,000000  	-0,000000  	25,321249  	21,737726  	23,161879  	25,096589  	32,042545  	30,018628  	31,823630  	33,097236  	40,234966  	38,541636  	42,745083  	67,008614  	28,978901  	27,315086  	28,086733  	72,415380  	0,140967  	0,071429  	-6349,100339  	22427,940550  	-0,022138  	-0,049995  	0,301422  	0,152733  	-4,208832  	9836,346258  	11824,841618  	1,715048  	-0,047947  
113,552000  	18,318979  	39,600696  	26,477631  	956,927186  	80,005024  	73,437330  	0,004517  	0,008549  	0,003963  	0,004102  	0,004406  	-0,000001  	-0,000000  	25,322376  	21,742058  	23,164304  	25,102036  	32,040074  	30,025453  	31,824503  	33,101625  	40,233069  	38,537404  	42,747669  	67,015349  	28,988643  	27,316282  	28,088388  	72,419765  	0,089532  	0,045367  	-4038,239844  	22435,673867  	-0,022145  	-0,050015  	0,347924  	0,176295  	-4,853853  	9785,048631  	12076,301273  	1,751519  	-0,047964  
114,554000  	18,304381  	39,605326  	26,478123  	357,439972  	80,004837  	73,455601  	0,004524  	0,008515  	0,003961  	0,004091  	0,004328  	-0,000000  	-0,000000  	25,334905  	21,738563  	23,171171  	25,106382  	32,049451  	30,032784  	31,829768  	33,108282  	40,235244  	38,543226  	42,754393  	67,012311  	28,988908  	27,310507  	28,091965  	72,427828  	0,080266  	0,040671  	-3623,570384  	12423,031136  	-0,036410  	-0,050004  	0,286070  	0,144954  	-3,979737  	9712,791497  	12207,792952  	1,770591  	-0,047955  
115,555000  	18,299137  	39,601345  	26,477478  	1256,670793  	80,003337  	73,466046  	0,004507  	0,008550  	0,003963  	0,004052  	0,004410  	0,000001  	-0,000000  	25,329066  	21,735315  	23,163864  	25,104734  	32,043304  	30,033252  	31,825422  	33,105796  	40,238231  	38,543895  	42,755095  	67,004968  	28,977843  	27,300751  	28,089584  	72,423471  	0,048814  	0,024734  	-2203,816355  	25484,027091  	-0,018510  	-0,049993  	0,350729  	0,177717  	-4,870370  	9788,198181  	11843,878325  	1,717809  	-0,047945  
116,555000  	18,311588  	39,584063  	26,477785  	1256,670793  	80,006461  	73,468353  	0,004515  	0,008533  	0,003963  	0,003984  	0,004327  	-0,000000  	-0,000000  	25,324829  	21,736265  	23,165617  	25,105174  	32,038334  	30,029732  	31,827134  	33,098834  	40,238446  	38,541286  	42,749976  	66,999862  	28,978248  	27,296517  	28,085482  	72,417922  	-0,006590  	-0,003339  	297,113311  	25490,084894  	-0,018514  	-0,050006  	0,284950  	0,144386  	-3,957428  	9751,669907  	12022,848796  	1,743767  	-0,047957  
117,554000  	18,352129  	39,576841  	26,477970  	1256,670793  	80,007274  	73,475961  	0,004524  	0,008521  	0,003966  	0,004128  	0,004351  	-0,000000  	-0,000000  	25,321979  	21,729029  	23,163250  	25,097912  	32,036775  	30,022606  	31,827913  	33,090162  	40,234416  	38,533842  	42,746075  	66,998378  	28,979933  	27,287175  	28,082982  	72,419455  	0,110360  	0,055920  	-4964,302919  	25488,171437  	-0,018513  	-0,050002  	0,304270  	0,154176  	-4,221357  	9725,853782  	12220,502920  	1,772434  	-0,047953  
118,556000  	18,377951  	39,584803  	26,478584  	1256,670793  	80,006711  	73,469226  	0,004519  	0,008535  	0,003964  	0,004089  	0,004349  	-0,000000  	-0,000000  	25,315243  	21,719383  	23,153984  	25,087002  	32,035504  	30,014026  	31,821217  	33,087574  	40,230207  	38,529299  	42,744603  	66,998752  	28,975464  	27,270767  	28,078178  	72,420796  	0,078488  	0,039770  	-3527,607340  	25487,862244  	-0,018512  	-0,050001  	0,302532  	0,153295  	-4,201213  	9755,676174  	12106,529813  	1,755904  	-0,047952  
119,552000  	18,394051  	39,587396  	26,479507  	357,439972  	80,004587  	73,477395  	0,004508  	0,008546  	0,003963  	0,004028  	0,004352  	-0,000000  	-0,000000  	25,318787  	21,733247  	23,158637  	25,097587  	32,048311  	30,021732  	31,826573  	33,095580  	40,239307  	38,538759  	42,750622  	67,008938  	28,982607  	27,270759  	28,082981  	72,428513  	0,028952  	0,014670  	-1300,419437  	12422,454634  	-0,036409  	-0,050002  	0,304896  	0,154493  	-4,227381  	9779,932380  	11878,392949  	1,722815  	-0,047953  
120,552000  	18,399326  	39,584124  	26,479630  	956,927186  	79,999526  	73,481448  	0,004516  	0,008502  	0,003965  	0,004060  	0,004295  	0,000002  	-0,000000  	25,328023  	21,747084  	23,165640  	25,113748  	32,053955  	30,032397  	31,833828  	33,102335  	40,244254  	38,544552  	42,756522  	67,020530  	28,989354  	27,278124  	28,098621  	72,432666  	0,055226  	0,027983  	-2479,541146  	22419,089904  	-0,022129  	-0,049973  	0,259898  	0,131692  	-3,598454  	9684,134268  	12041,391227  	1,746456  	-0,047929  
121,555000  	18,421652  	39,583291  	26,480552  	57,696365  	79,996370  	73,475680  	0,004526  	0,008275  	0,003963  	0,004074  	0,004364  	0,000000  	-0,000000  	25,330110  	21,737936  	23,163555  	25,105993  	32,044849  	30,020260  	31,826580  	33,100847  	40,234561  	38,539846  	42,751968  	67,018481  	28,980688  	27,270881  	28,098448  	72,425705  	0,066937  	0,033917  	-3002,029315  	1686,927445  	-0,053715  	-0,049999  	0,314256  	0,159236  	-4,352816  	9193,934225  	12261,605545  	1,778396  	-0,047951  
122,555000  	18,423799  	39,586501  	26,480183  	1256,670793  	79,995995  	73,469257  	0,004508  	0,008625  	0,003963  	0,004125  	0,004374  	-0,000000  	-0,000000  	25,325331  	21,738767  	23,162213  	25,098750  	32,046084  	30,011168  	31,825790  	33,097906  	40,234259  	38,538741  	42,750989  	67,016440  	28,976461  	27,262596  	28,090833  	72,426171  	0,108215  	0,054834  	-4853,568898  	25488,762384  	-0,018513  	-0,050003  	0,322305  	0,163314  	-4,468430  	9950,249331  	11880,581888  	1,723133  	-0,047954  
123,553000  	18,412206  	39,581223  	26,480644  	357,439972  	79,990434  	73,457877  	0,004512  	0,008411  	0,003962  	0,004084  	0,004343  	-0,000001  	-0,000000  	25,320106  	21,737467  	23,162993  	25,100774  	32,042165  	30,018821  	31,832660  	33,098981  	40,231106  	38,538080  	42,751426  	67,011452  	28,976913  	27,257958  	28,093429  	72,423237  	0,074610  	0,037805  	-3347,337463  	12424,460155  	-0,036415  	-0,050011  	0,297644  	0,150819  	-4,130211  	9488,870644  	11951,079844  	1,733358  	-0,047961  
124,555000  	18,399510  	39,575237  	26,480828  	-242,047242  	79,985123  	73,435740  	0,004524  	0,008523  	0,003963  	0,004062  	0,004377  	0,000001  	-0,000000  	25,314204  	21,734656  	23,157935  	25,096223  	32,045893  	30,027051  	31,826740  	33,093805  	40,244303  	38,540692  	42,751595  	67,009308  	28,980614  	27,276579  	28,083609  	72,426358  	0,056845  	0,028804  	-2551,139822  	-27100,301740  	-0,102379  	-0,049989  	0,324696  	0,164526  	-4,517181  	9730,307863  	12211,485904  	1,771126  	-0,047942  
125,555000  	18,380282  	39,587457  	26,482642  	57,696365  	79,979093  	73,433526  	0,004522  	0,008526  	0,003964  	0,004055  	0,004323  	0,000001  	-0,000000  	25,319456  	21,737148  	23,164107  	25,104884  	32,041712  	30,018267  	31,824351  	33,101687  	40,243428  	38,544544  	42,755663  	67,015248  	28,976810  	27,288116  	28,085423  	72,429671  	0,051546  	0,026119  	-2316,745766  	1686,339384  	-0,053700  	-0,049983  	0,282106  	0,142945  	-3,922381  	9735,099396  	12177,762123  	1,766235  	-0,047937  
126,575000  	18,377460  	39,589618  	26,482827  	1256,670793  	79,978281  	73,435646  	0,004509  	0,008554  	0,003965  	0,004151  	0,004310  	0,000000  	-0,000000  	25,318669  	21,733694  	23,163652  	25,098046  	32,046100  	30,024131  	31,831049  	33,098855  	40,240578  	38,538593  	42,749469  	67,013041  	28,971861  	27,321310  	28,085069  	72,432835  	0,129105  	0,065418  	-5804,051262  	25486,524846  	-0,018511  	-0,049999  	0,272121  	0,137886  	-3,781857  	9795,578966  	11892,529258  	1,724866  	-0,047950  
127,567000  	18,373964  	39,588599  	26,483657  	357,439972  	79,977031  	73,442724  	0,004512  	0,008429  	0,003963  	0,004053  	0,004335  	0,000002  	-0,000000  	25,313152  	21,734627  	23,163335  	25,099030  	32,046637  	30,021393  	31,823283  	33,094503  	40,242776  	38,537433  	42,749284  	67,010950  	28,949806  	27,356364  	28,092555  	72,433674  	0,049941  	0,025306  	-2245,424803  	12416,894665  	-0,036393  	-0,049978  	0,291499  	0,147704  	-4,046003  	9526,316476  	11957,081773  	1,734228  	-0,047933  
128,559000  	18,379239  	39,582797  	26,483779  	-242,047242  	79,978906  	73,449708  	0,004525  	0,008330  	0,003961  	0,004122  	0,004317  	-0,000001  	-0,000000  	25,310815  	21,725879  	23,155088  	25,084856  	32,041813  	30,016752  	31,819163  	33,099060  	40,233804  	38,525531  	42,750315  	67,012774  	28,944655  	27,375619  	28,077923  	72,422839  	0,105760  	0,053589  	-4752,607310  	-27108,975156  	-0,102410  	-0,050007  	0,277013  	0,140364  	-3,841939  	9312,677645  	12242,088683  	1,775565  	-0,047957  
129,559000  	18,401411  	39,587272  	26,485655  	1256,670793  	79,980749  	73,444657  	0,004512  	0,008536  	0,003965  	0,004097  	0,004354  	-0,000001  	-0,000000  	25,315817  	21,734377  	23,149703  	25,097064  	32,035511  	30,022954  	31,817141  	33,093541  	40,232015  	38,532085  	42,746381  	67,004511  	28,939338  	27,414150  	28,077542  	72,418844  	0,085232  	0,043188  	-3826,925274  	25494,113586  	-0,018517  	-0,050016  	0,306459  	0,155285  	-4,254823  	9758,542746  	11967,680474  	1,735765  	-0,047965  
130,559000  	18,422388  	39,579989  	26,485839  	1256,670793  	79,980749  	73,436738  	0,004510  	0,008366  	0,003961  	0,004093  	0,004365  	0,000000  	-0,000000  	25,309768  	21,724977  	23,151230  	25,087740  	32,034165  	30,015830  	31,805188  	33,080551  	40,222383  	38,531622  	42,751207  	67,007984  	28,947755  	27,438485  	28,082654  	72,430692  	0,081816  	0,041457  	-3668,635047  	25486,020476  	-0,018511  	-0,049998  	0,315579  	0,159906  	-4,386736  	9390,322689  	11909,221683  	1,727287  	-0,047949  
131,557000  	18,423124  	39,580915  	26,486577  	357,439972  	79,978250  	73,432123  	0,004522  	0,008525  	0,003962  	0,004116  	0,004359  	0,000001  	-0,000000  	25,316819  	21,721640  	23,154292  	25,089181  	32,032390  	30,012519  	31,814946  	33,081982  	40,226079  	38,539195  	42,736732  	67,010047  	28,920227  	27,467991  	28,070054  	72,426712  	0,100267  	0,050806  	-4496,024895  	12418,678575  	-0,036398  	-0,049987  	0,310713  	0,157440  	-4,320488  	9734,539098  	12166,810367  	1,764647  	-0,047940  
132,556000  	18,400553  	39,590790  	26,487130  	956,927186  	79,974001  	73,423019  	0,004523  	0,008373  	0,003965  	0,004105  	0,004352  	0,000001  	-0,000000  	25,309157  	21,717951  	23,154040  	25,092694  	32,037199  	30,015028  	31,816351  	33,090742  	40,222338  	38,539603  	42,748291  	67,017369  	28,924432  	27,496944  	28,074041  	72,426509  	0,091588  	0,046408  	-4113,164349  	22425,187788  	-0,022135  	-0,049989  	0,305328  	0,154712  	-4,248753  	9406,270647  	12194,645197  	1,768684  	-0,047942  
133,557000  	18,407116  	39,591006  	26,488698  	-242,047242  	79,970533  	73,418124  	0,004506  	0,008387  	0,003963  	0,004080  	0,004365  	-0,000001  	-0,000000  	25,319562  	21,727918  	23,154900  	25,095832  	32,035734  	30,017573  	31,820955  	33,089864  	40,230154  	38,535031  	42,752321  	67,012524  	28,940675  	27,543878  	28,078227  	72,432471  	0,071807  	0,036385  	-3223,839904  	-27113,209124  	-0,102424  	-0,050015  	0,315670  	0,159952  	-4,393621  	9436,618672  	11831,097746  	1,715956  	-0,047965  
134,555000  	18,424351  	39,576934  	26,489251  	357,439972  	79,967784  	73,412512  	0,004513  	0,008574  	0,003961  	0,004117  	0,004367  	-0,000000  	-0,000000  	25,322540  	21,720264  	23,164610  	25,096981  	32,045345  	30,017397  	31,823181  	33,095876  	40,231123  	38,533105  	42,753502  	67,026732  	28,948213  	27,569190  	28,082901  	72,433850  	0,101730  	0,051548  	-4560,531199  	12422,679610  	-0,036410  	-0,050005  	0,316683  	0,160465  	-4,409639  	9838,836468  	11973,251677  	1,736573  	-0,047956  
135,558000  	18,419567  	39,573508  	26,488790  	357,439972  	79,965097  	73,409799  	0,004523  	0,008386  	0,003963  	0,004058  	0,004399  	-0,000001  	-0,000000  	25,302403  	21,707946  	23,141575  	25,090814  	32,020988  	30,002804  	31,808337  	33,084316  	40,225915  	38,524773  	42,742638  	67,009614  	28,927890  	27,597107  	28,072166  	72,415806  	0,053377  	0,027046  	-2393,012473  	12423,582186  	-0,036413  	-0,050009  	0,341946  	0,173267  	-4,761441  	9434,233164  	12190,924001  	1,768144  	-0,047959  
136,562000  	18,412513  	39,569250  	26,490758  	-242,047242  	79,966409  	73,419714  	0,004521  	0,008348  	0,003963  	0,004144  	0,004364  	-0,000001  	-0,000000  	25,304903  	21,720744  	23,147963  	25,084386  	32,039495  	30,015394  	31,824829  	33,083540  	40,230311  	38,532820  	42,741394  	67,015948  	28,946597  	27,647828  	28,081541  	72,427684  	0,123340  	0,062497  	-5530,365246  	-27110,958937  	-0,102415  	-0,050011  	0,314450  	0,159334  	-4,372831  	9352,112816  	12153,817955  	1,762762  	-0,047960  
137,558000  	18,395769  	39,565516  	26,492172  	956,927186  	79,974563  	73,417469  	0,004509  	0,008615  	0,003963  	0,004046  	0,004334  	-0,000001  	-0,000000  	25,306464  	21,719866  	23,150389  	25,078541  	32,035961  	30,014661  	31,817791  	33,086914  	40,224421  	38,528141  	42,739172  	67,010933  	28,948768  	27,672761  	28,076538  	72,426737  	0,043756  	0,022172  	-1963,173327  	22435,721768  	-0,022146  	-0,050016  	0,290743  	0,147322  	-4,049579  	9927,267943  	11901,066120  	1,726104  	-0,047965  
138,559000  	18,378104  	39,566688  	26,492663  	357,439972  	79,975625  	73,412792  	0,004517  	0,008547  	0,003966  	0,004091  	0,004351  	-0,000000  	-0,000000  	25,309412  	21,726211  	23,156253  	25,080743  	32,032484  	30,013188  	31,809555  	33,094592  	40,230303  	38,530971  	42,745416  	67,008065  	28,946984  	27,706812  	28,079500  	72,425859  	0,080326  	0,040702  	-3607,139824  	12421,595466  	-0,036408  	-0,050001  	0,304381  	0,154232  	-4,243233  	9780,400002  	12058,966289  	1,749005  	-0,047952  
139,553000  	18,389605  	39,571595  	26,494139  	1256,670793  	79,976656  	73,406681  	0,004522  	0,008558  	0,003963  	0,004142  	0,004300  	0,000001  	-0,000000  	25,309806  	21,726282  	23,153626  	25,089920  	32,037660  	30,014609  	31,813449  	33,096046  	40,236031  	38,535497  	42,748340  	67,014919  	28,961140  	27,740347  	28,083695  	72,432233  	0,121325  	0,061476  	-5446,525374  	25481,731679  	-0,018508  	-0,049989  	0,264221  	0,133883  	-3,687394  	9805,875845  	12172,551036  	1,765479  	-0,047942  
140,555000  	18,402301  	39,574681  	26,493893  	1256,670793  	79,982217  	73,423767  	0,004508  	0,008566  	0,003963  	0,004108  	0,004394  	0,000000  	-0,000000  	25,317169  	21,726119  	23,147331  	25,086661  	32,041095  	30,013124  	31,810866  	33,093471  	40,235365  	38,536433  	42,746667  	67,015203  	28,965550  	27,762725  	28,076996  	72,432087  	0,093936  	0,047598  	-4215,046900  	25484,785581  	-0,018510  	-0,049996  	0,338043  	0,171289  	-4,709366  	9821,714857  	11873,923277  	1,722167  	-0,047948  
141,557000  	18,411317  	39,564682  	26,495276  	1256,670793  	79,983905  	73,431188  	0,004514  	0,008419  	0,003962  	0,004031  	0,004325  	0,000000  	-0,000000  	25,316792  	21,722214  	23,148205  	25,085320  	32,030936  	30,005971  	31,806806  	33,090052  	40,232050  	38,537705  	42,740948  	67,010312  	28,963288  	27,775755  	28,070371  	72,424514  	0,031996  	0,016213  	-1434,436860  	25484,757614  	-0,018510  	-0,049996  	0,283279  	0,143540  	-3,942988  	9504,173412  	11990,706700  	1,739105  	-0,047948  
142,553000  	18,413893  	39,567460  	26,496690  	1256,670793  	79,982842  	73,428943  	0,004524  	0,008387  	0,003964  	0,004091  	0,004322  	0,000001  	-0,000000  	25,310402  	21,718228  	23,146374  	25,085319  	32,023805  	30,006754  	31,810154  	33,082616  	40,228356  	38,539016  	42,738435  	67,012078  	28,966663  	27,794097  	28,069352  	72,418223  	0,080380  	0,040729  	-3603,584383  	25483,172090  	-0,018509  	-0,049992  	0,281375  	0,142575  	-3,917184  	9436,161662  	12219,648528  	1,772310  	-0,047945  
143,559000  	18,426682  	39,572459  	26,497797  	1256,670793  	79,982311  	73,431780  	0,004522  	0,008429  	0,003962  	0,004163  	0,004377  	-0,000001  	-0,000000  	25,308172  	21,719868  	23,148664  	25,086452  	32,033509  	30,012946  	31,815831  	33,081608  	40,229546  	38,537948  	42,740518  	67,011804  	28,977854  	27,819158  	28,073395  	72,421987  	0,138702  	0,070281  	-6215,956715  	25489,748859  	-0,018514  	-0,050007  	0,324466  	0,164409  	-4,514764  	9527,828288  	12163,110354  	1,764110  	-0,047957  
144,553000  	18,444162  	39,574372  	26,498350  	57,696365  	79,982686  	73,432217  	0,004505  	0,008486  	0,003961  	0,004159  	0,004379  	0,000000  	-0,000000  	25,315511  	21,730229  	23,158319  	25,090001  	32,041324  	30,017828  	31,820595  	33,087877  	40,241342  	38,540578  	42,749304  	67,016067  	28,983772  	27,842750  	28,080643  	72,430435  	0,135292  	0,068553  	-6058,640917  	1685,817917  	-0,053710  	-0,049996  	0,326260  	0,165318  	-4,539686  	9649,980184  	11811,609129  	1,713129  	-0,047948  
145,553000  	18,461949  	39,580421  	26,499549  	1256,670793  	79,981843  	73,427446  	0,004516  	0,008331  	0,003960  	0,004079  	0,004304  	0,000000  	-0,000000  	25,311536  	21,735181  	23,154776  	25,087110  	32,033814  	30,015460  	31,815489  	33,088505  	40,241202  	38,537860  	42,748505  	67,016380  	28,977227  	27,854740  	28,077321  	72,426819  	0,070919  	0,035935  	-3174,151976  	25484,141549  	-0,018510  	-0,049995  	0,267160  	0,135372  	-3,719576  	9314,664862  	12043,460128  	1,746756  	-0,047947  
146,555000  	18,467286  	39,585729  	26,500779  	1256,670793  	79,980905  	73,425014  	0,004524  	0,008580  	0,003964  	0,004097  	0,004392  	-0,000000  	-0,000000  	25,303349  	21,722563  	23,140958  	25,080622  	32,025811  	30,010174  	31,804859  	33,081407  	40,227146  	38,528101  	42,734015  	67,004947  	28,975295  	27,860240  	28,069830  	72,420408  	0,085366  	0,043256  	-3820,728908  	25486,802398  	-0,018512  	-0,050001  	0,336640  	0,170578  	-4,687985  	9852,825508  	12209,529981  	1,770843  	-0,047952  
147,555000  	18,447597  	39,584803  	26,502162  	1256,670793  	79,983811  	73,418685  	0,004511  	0,008437  	0,003965  	0,004100  	0,004308  	-0,000001  	-0,000000  	25,314035  	21,717487  	23,145417  	25,081227  	32,028501  	30,010894  	31,807008  	33,080798  	40,228642  	38,531376  	42,734556  	67,004272  	28,982377  	27,874480  	28,074353  	72,429131  	0,087440  	0,044307  	-3917,045827  	25494,663564  	-0,018518  	-0,050018  	0,270245  	0,136935  	-3,768679  	9543,569672  	11940,382288  	1,731806  	-0,047967  
148,558000  	18,416745  	39,577026  	26,503453  	1256,670793  	79,988060  	73,418934  	0,004514  	0,008411  	0,003963  	0,004058  	0,004349  	0,000000  	-0,000000  	25,314206  	21,725358  	23,155257  	25,085441  	32,031661  	30,007907  	31,810993  	33,087764  	40,230105  	38,533570  	42,741595  	67,006274  	28,980388  	27,894718  	28,075305  	72,431418  	0,053960  	0,027342  	-2419,906560  	25485,769599  	-0,018511  	-0,049998  	0,302684  	0,153372  	-4,223622  	9486,983885  	12009,298558  	1,741801  	-0,047950  
149,555000  	18,379699  	39,579310  	26,504960  	1256,670793  	79,991746  	73,423487  	0,004521  	0,008617  	0,003962  	0,004087  	0,004356  	0,000000  	-0,000000  	25,307101  	21,719405  	23,145444  	25,087675  	32,028428  	30,008096  	31,809669  	33,084057  	40,221000  	38,522502  	42,735349  	67,004437  	28,974780  	27,915567  	28,073133  	72,424051  	0,077285  	0,039161  	-3472,352609  	25485,020967  	-0,018511  	-0,049997  	0,307897  	0,156014  	-4,295812  	9931,572046  	12157,701557  	1,763326  	-0,047949  
150,558000  	18,354061  	39,585853  	26,506866  	1256,670793  	79,990747  	73,434274  	0,004519  	0,008422  	0,003963  	0,004101  	0,004373  	-0,000000  	-0,000000  	25,301754  	21,724256  	23,151809  	25,091537  	32,030175  	30,013847  	31,812990  	33,085858  	40,226392  	38,529432  	42,733812  	67,011251  	28,974988  	27,928473  	28,076432  	72,437465  	0,088464  	0,044826  	-3980,694239  	25487,756959  	-0,018513  	-0,050003  	0,321447  	0,162880  	-4,476820  	9510,702432  	12102,180180  	1,755273  	-0,047954  
151,556000  	18,340077  	39,581501  	26,507327  	357,439972  	79,991215  	73,448056  	0,004505  	0,008564  	0,003963  	0,004137  	0,004356  	0,000000  	-0,000000  	25,318083  	21,726980  	23,153391  	25,088375  	32,030305  	30,018139  	31,805661  	33,081685  	40,235927  	38,533024  	42,729121  	67,020587  	28,967398  	27,947291  	28,077245  	72,434603  	0,117256  	0,059414  	-5278,636130  	12419,839977  	-0,036404  	-0,049997  	0,308230  	0,156183  	-4,284041  	9818,053115  	11817,137965  	1,713931  	-0,047949  
152,558000  	18,338973  	39,574897  	26,508433  	956,927186  	79,990465  	73,447183  	0,004516  	0,008385  	0,003962  	0,004066  	0,004358  	0,000000  	-0,000000  	25,309803  	21,725336  	23,146425  	25,080314  	32,024130  	30,020731  	31,808541  	33,081632  	40,234019  	38,527578  	42,729050  	67,007438  	28,968392  	27,962492  	28,072094  	72,435392  	0,060109  	0,030458  	-2705,289384  	22426,367530  	-0,022137  	-0,049994  	0,309977  	0,157067  	-4,308394  	9430,798513  	12050,330572  	1,747753  	-0,047946  
153,553000  	18,340691  	39,576996  	26,510186  	1256,670793  	79,990590  	73,440541  	0,004525  	0,008292  	0,003964  	0,004074  	0,004333  	-0,000000  	-0,000000  	25,323667  	21,733026  	23,147210  	25,096347  	32,028868  	30,022826  	31,808900  	33,081146  	40,230562  	38,535485  	42,733244  	67,012008  	28,979561  	27,984409  	28,079353  	72,436762  	0,066430  	0,033660  	-2989,829450  	25486,313205  	-0,018512  	-0,050000  	0,289858  	0,146873  	-4,032930  	9230,759627  	12245,894612  	1,776117  	-0,047952  
154,557000  	18,341611  	39,589340  	26,512276  	1256,670793  	79,991653  	73,441040  	0,004513  	0,008687  	0,003963  	0,004126  	0,004365  	-0,000000  	-0,000000  	25,316815  	21,730446  	23,149691  	25,089340  	32,025628  	30,008180  	31,806582  	33,078806  	40,228564  	38,528547  	42,728441  	67,016458  	28,976756  	27,975584  	28,071504  	72,439777  	0,108992  	0,055227  	-4908,089268  	25487,606121  	-0,018513  	-0,050003  	0,315057  	0,159642  	-4,383906  	10084,153322  	11984,266983  	1,738171  	-0,047954  
155,556000  	18,351363  	39,589618  	26,513844  	1256,670793  	79,996901  	73,422302  	0,004506  	0,008531  	0,003963  	0,004093  	0,004341  	-0,000001  	-0,000000  	25,312615  	21,726380  	23,151599  	25,085405  	32,034110  	30,007708  	31,817001  	33,083489  	40,230279  	38,530747  	42,729802  	67,007894  	28,972150  	27,989890  	28,062139  	72,430575  	0,081910  	0,041504  	-3686,889714  	25490,440743  	-0,018515  	-0,050009  	0,295987  	0,149979  	-4,133617  	9747,360852  	11830,864730  	1,715922  	-0,047959  
156,553000  	18,362464  	39,584124  	26,515012  	1256,670793  	80,003275  	73,429161  	0,004521  	0,008378  	0,003962  	0,004082  	0,004321  	-0,000000  	-0,000000  	25,315101  	21,727319  	23,149317  	25,095748  	32,038226  	30,028255  	31,820572  	33,082547  	40,234146  	38,526092  	42,732492  	67,010118  	28,988551  	27,998137  	28,071047  	72,432153  	0,073091  	0,037036  	-3287,363649  	25486,304456  	-0,018512  	-0,050000  	0,280314  	0,142037  	-3,914456  	9417,127823  	12143,565248  	1,761275  	-0,047952  
157,553000  	18,368935  	39,588229  	26,516426  	956,927186  	80,003931  	73,449303  	0,004524  	0,008445  	0,003963  	0,004096  	0,004368  	-0,000000  	-0,000000  	25,317455  	21,717420  	23,147269  	25,081941  	32,029321  	30,003280  	31,810995  	33,076169  	40,227354  	38,525440  	42,723894  	67,005441  	28,976399  	27,987583  	28,070383  	72,425242  	0,084296  	0,042713  	-3790,883837  	22429,603936  	-0,022140  	-0,050003  	0,317587  	0,160924  	-4,421825  	9560,613465  	12224,711332  	1,773044  	-0,047954  
158,553000  	18,361207  	39,587426  	26,517471  	-242,047242  	80,002181  	73,453294  	0,004507  	0,008459  	0,003963  	0,004077  	0,004359  	0,000001  	-0,000000  	25,310742  	21,721346  	23,149589  	25,080493  	32,025903  	30,004972  	31,804983  	33,091433  	40,235096  	38,533412  	42,716764  	67,002060  	28,979547  	27,968653  	28,067352  	72,420789  	0,068677  	0,034799  	-3089,491811  	-27098,858829  	-0,102359  	-0,049984  	0,310380  	0,157272  	-4,317696  	9591,058409  	11854,921875  	1,719411  	-0,047938  
159,553000  	18,347131  	39,575298  	26,518670  	-242,047242  	79,998057  	73,435303  	0,004513  	0,008627  	0,003964  	0,004084  	0,004330  	0,000000  	-0,000000  	25,322224  	21,736289  	23,152127  	25,087537  	32,031553  	30,010205  	31,818320  	33,093223  	40,231335  	38,530492  	42,726095  	67,003179  	28,982028  	27,983124  	28,074445  	72,419598  	0,074778  	0,037890  	-3364,253235  	-27104,709458  	-0,102381  	-0,049997  	0,287942  	0,145902  	-4,014036  	9954,331295  	11979,656089  	1,737502  	-0,047948  
160,553000  	18,342040  	39,568262  	26,520145  	-242,047242  	79,992496  	73,429941  	0,004527  	0,008539  	0,003964  	0,004056  	0,004320  	-0,000000  	-0,000000  	25,313425  	21,724667  	23,155975  	25,076157  	32,030622  	30,012795  	31,808731  	33,090480  	40,228755  	38,531790  	42,720845  	67,016792  	28,991033  	27,967149  	28,072344  	72,419810  	0,051611  	0,026152  	-2321,762949  	-27108,094479  	-0,102393  	-0,050003  	0,280049  	0,141903  	-3,903877  	9763,149635  	12277,493005  	1,780700  	-0,047954  
161,555000  	18,335385  	39,570577  	26,521498  	57,696365  	79,988466  	73,445873  	0,004517  	0,008393  	0,003960  	0,004075  	0,004375  	-0,000000  	-0,000000  	25,314291  	21,731531  	23,161189  	25,086786  	32,032796  	30,015667  	31,813304  	33,092075  	40,235770  	38,542013  	42,734741  	67,014542  	28,998072  	27,975851  	28,083612  	72,430612  	0,067571  	0,034239  	-3041,028785  	1684,796027  	-0,053717  	-0,050005  	0,323653  	0,163997  	-4,498007  	9448,731565  	12059,834803  	1,749131  	-0,047956  
162,556000  	18,320727  	39,568910  	26,521129  	1256,670793  	79,988716  	73,451859  	0,004509  	0,008331  	0,003964  	0,004104  	0,004363  	0,000000  	-0,000000  	25,312760  	21,731957  	23,156923  	25,090424  	32,037107  	30,026889  	31,813066  	33,089716  	40,240267  	38,539192  	42,737456  	67,013852  	29,006630  	27,983571  	28,074514  	72,420757  	0,090654  	0,045935  	-4082,364823  	25485,509259  	-0,018511  	-0,049999  	0,313391  	0,158798  	-4,351577  	9314,435649  	11894,471059  	1,725147  	-0,047951  
163,554000  	18,304627  	39,563170  	26,522512  	1256,670793  	79,992621  	73,440791  	0,004518  	0,008623  	0,003964  	0,004098  	0,004333  	0,000000  	-0,000000  	25,309937  	21,728255  	23,146575  	25,082936  	32,034663  	30,013812  	31,810746  	33,085278  	40,229363  	38,529949  	42,721828  	67,010729  	28,998452  	27,985764  	28,074048  	72,410556  	0,085842  	0,043497  	-3867,572299  	25485,718312  	-0,018511  	-0,050000  	0,289941  	0,146915  	-4,035169  	9944,506991  	12096,736077  	1,754483  	-0,047951  
164,555000  	18,299229  	39,566688  	26,523435  	1256,670793  	79,993246  	73,439045  	0,004523  	0,008516  	0,003962  	0,004076  	0,004347  	0,000000  	-0,000000  	25,317434  	21,727948  	23,157608  	25,079060  	32,036972  	30,015215  	31,813522  	33,094232  	40,238041  	38,533063  	42,723240  	67,019218  	28,986151  	28,010656  	28,071616  	72,419039  	0,067911  	0,034411  	-3061,012046  	25485,145369  	-0,018511  	-0,049998  	0,301248  	0,152645  	-4,194056  	9714,531814  	12200,124605  	1,769478  	-0,047950  
165,559000  	18,332748  	39,571811  	26,523404  	57,696365  	79,991090  	73,433090  	0,004509  	0,008503  	0,003962  	0,004053  	0,004311  	-0,000000  	-0,000000  	25,315645  	21,733307  	23,156655  	25,079538  	32,032607  	30,015538  	31,815494  	33,090787  	40,236747  	38,534109  	42,721736  	67,021577  	28,975297  	28,012149  	28,067763  	72,418701  	0,049499  	0,025081  	-2228,095292  	1684,549521  	-0,053713  	-0,050001  	0,272423  	0,138039  	-3,794946  	9685,874586  	11893,849683  	1,725057  	-0,047952  
166,555000  	18,352191  	39,567429  	26,523896  	1256,670793  	79,988091  	73,441134  	0,004516  	0,008488  	0,003965  	0,004104  	0,004320  	-0,000000  	-0,000000  	25,321510  	21,734305  	23,152716  	25,084832  	32,031488  	30,008153  	31,817949  	33,092819  	40,230469  	38,533361  	42,723568  	67,021737  	28,985610  	28,025783  	28,074993  	72,424518  	0,090854  	0,046036  	-4085,018137  	25486,082268  	-0,018512  	-0,050001  	0,279919  	0,141837  	-3,892799  	9654,201515  	12034,386623  	1,745440  	-0,047952  
167,554000  	18,349615  	39,565577  	26,525187  	1256,670793  	79,987779  	73,445873  	0,004523  	0,008532  	0,003963  	0,004070  	0,004336  	-0,000000  	-0,000000  	25,321410  	21,725321  	23,154527  	25,088356  	32,033586  	30,012682  	31,817080  	33,088899  	40,239593  	38,532959  	42,725004  	67,024497  	28,985932  	28,031902  	28,081305  	72,422711  	0,063013  	0,031929  	-2833,313558  	25485,945303  	-0,018512  	-0,050000  	0,292366  	0,148144  	-4,062763  	9749,870164  	12187,944219  	1,767712  	-0,047952  
168,558000  	18,356545  	39,564898  	26,525187  	57,696365  	79,996026  	73,437392  	0,004519  	0,008526  	0,003962  	0,004062  	0,004354  	0,000000  	-0,000000  	25,318455  	21,723670  	23,152527  	25,088831  	32,035873  	30,015580  	31,816013  	33,087613  	40,237714  	38,533720  	42,720071  	67,019342  	28,984154  	28,036857  	28,076232  	72,411205  	0,056840  	0,028801  	-2554,853833  	1684,318008  	-0,053709  	-0,049996  	0,306847  	0,155482  	-4,274899  	9735,649789  	12099,871202  	1,754938  	-0,047948  
169,553000  	18,373658  	39,555671  	26,525464  	956,927186  	79,998276  	73,439731  	0,004508  	0,008354  	0,003961  	0,004116  	0,004372  	0,000000  	-0,000000  	25,312610  	21,723664  	23,151386  	25,085635  	32,039031  	30,014563  	31,814475  	33,088232  	40,233744  	38,534208  	42,716298  	67,018270  	28,990463  	28,048544  	28,070357  	72,413598  	0,100309  	0,050827  	-4503,101250  	22427,400049  	-0,022138  	-0,049998  	0,321053  	0,162680  	-4,472750  	9364,261081  	11865,280499  	1,720913  	-0,047950  
170,555000  	18,379791  	39,550116  	26,526263  	357,439972  	79,996714  	73,448399  	0,004516  	0,008535  	0,003963  	0,004096  	0,004363  	-0,000000  	-0,000000  	25,305990  	21,720798  	23,146011  	25,077835  	32,033371  	30,007202  	31,806246  	33,082577  	40,233584  	38,529019  	42,710820  	67,016627  	28,989549  	28,053701  	28,067234  	72,413674  	0,084758  	0,042948  	-3802,884824  	12420,026393  	-0,036407  	-0,050002  	0,313978  	0,159095  	-4,367365  	9754,498276  	12045,839716  	1,747101  	-0,047953  
171,558000  	18,393775  	39,552801  	26,527646  	1256,670793  	79,994027  	73,455819  	0,004524  	0,008200  	0,003963  	0,004098  	0,004342  	0,000000  	-0,000000  	25,300218  	21,719957  	23,140110  	25,077350  	32,023981  	30,000866  	31,800701  	33,077646  	40,229077  	38,527119  	42,708987  	67,010133  	28,992188  	28,052184  	28,066011  	72,409719  	0,086015  	0,043584  	-3857,178994  	25484,999750  	-0,018511  	-0,049998  	0,297190  	0,150588  	-4,127465  	9033,055313  	12212,763962  	1,771312  	-0,047950  
172,557000  	18,408864  	39,553233  	26,528630  	1256,670793  	79,990778  	73,438421  	0,004508  	0,008567  	0,003963  	0,004093  	0,004351  	0,000000  	-0,000000  	25,298936  	21,721189  	23,139322  	25,080419  	32,022264  	30,005413  	31,802764  	33,069943  	40,228719  	38,530405  	42,710483  	67,011197  	29,002986  	28,057711  	28,061897  	72,413987  	0,082384  	0,041745  	-3691,811504  	25483,663369  	-0,018510  	-0,049996  	0,304435  	0,154260  	-4,237232  	9823,332786  	11864,652062  	1,720822  	-0,047948  
173,557000  	18,436403  	39,544592  	26,528230  	1256,670793  	79,986748  	73,426667  	0,004511  	0,008502  	0,003964  	0,004133  	0,004404  	-0,000000  	-0,000000  	25,301426  	21,718245  	23,133103  	25,073796  	32,020413  	30,000288  	31,798748  	33,063699  	40,225900  	38,523455  	42,699813  	67,007440  	29,000345  	28,063181  	28,051939  	72,404997  	0,114306  	0,057920  	-5113,517767  	25486,221942  	-0,018512  	-0,050001  	0,345858  	0,175249  	-4,819439  	9684,910337  	11939,662056  	1,731702  	-0,047952  
174,559000  	18,442169  	39,551443  	26,527984  	1256,670793  	79,986623  	73,420930  	0,004523  	0,008549  	0,003963  	0,004086  	0,004372  	0,000001  	-0,000000  	25,294849  	21,704540  	23,130546  	25,068144  	32,016558  	29,988891  	31,794852  	33,072520  	40,219672  	38,517436  	42,692114  	66,998553  	28,997108  	28,053980  	28,053484  	72,399052  	0,076473  	0,038750  	-3421,248608  	25479,649303  	-0,018507  	-0,049987  	0,320641  	0,162471  	-4,471865  	9786,135268  	12197,399023  	1,769083  	-0,047940  
175,558000  	18,420916  	39,560979  	26,528445  	357,439972  	79,980999  	73,418654  	0,004519  	0,008555  	0,003961  	0,004063  	0,004332  	0,000002  	-0,000000  	25,299032  	21,702889  	23,135337  	25,064854  	32,018349  	29,993451  	31,798808  	33,076067  	40,221531  	38,524564  	42,698819  	67,005214  	29,008677  	28,054308  	28,062864  	72,414695  	0,057729  	0,029251  	-2586,416301  	12415,081984  	-0,036392  	-0,049980  	0,289469  	0,146676  	-4,035055  	9798,294852  	12106,282675  	1,755868  	-0,047934  
176,556000  	18,402700  	39,556535  	26,529245  	956,927186  	79,977062  	73,432871  	0,004509  	0,008521  	0,003962  	0,004095  	0,004349  	-0,000001  	-0,000000  	25,300292  	21,711093  	23,142175  	25,067252  	32,024195  	30,000215  	31,792635  	33,072568  	40,220457  	38,524964  	42,701694  	67,009771  	29,013242  	28,058050  	28,060479  	72,411998  	0,083652  	0,042387  	-3750,293601  	22430,580622  	-0,022141  	-0,050007  	0,303004  	0,153534  	-4,212056  	9724,283959  	11885,150416  	1,723795  	-0,047957  
177,554000  	18,429196  	39,544160  	26,529491  	-242,047242  	79,981593  	73,441414  	0,004517  	0,008531  	0,003965  	0,004117  	0,004374  	-0,000001  	-0,000000  	25,294479  	21,706446  	23,143682  	25,069365  	32,015085  	30,005016  	31,802414  	33,074079  	40,227279  	38,528372  	42,698499  	67,013660  	29,021552  	28,070222  	28,059090  	72,409107  	0,101270  	0,051314  	-4531,826612  	-27111,907573  	-0,102404  	-0,050011  	0,322572  	0,163450  	-4,481332  	9746,364768  	12061,162289  	1,749324  	-0,047961  
178,554000  	18,445941  	39,546135  	26,529921  	357,439972  	79,990528  	73,451891  	0,004523  	0,008361  	0,003963  	0,004134  	0,004278  	0,000001  	-0,000000  	25,306616  	21,712108  	23,144190  	25,079467  	32,022812  	30,011957  	31,812643  	33,080187  	40,230364  	38,533100  	42,714733  	67,020291  	29,030047  	28,076406  	28,068550  	72,420639  	0,115113  	0,058328  	-5147,658216  	12416,526423  	-0,036397  	-0,049987  	0,246632  	0,124970  	-3,425527  	9381,126597  	12194,376875  	1,768645  	-0,047940  
179,553000  	18,458637  	39,555023  	26,529921  	357,439972  	79,999932  	73,460964  	0,004510  	0,008475  	0,003963  	0,004048  	0,004332  	0,000000  	-0,000000  	25,291572  	21,701068  	23,128770  	25,059369  	32,017693  	29,992461  	31,800827  	33,067272  	40,216986  	38,512296  	42,690064  	67,010433  	29,029087  	28,060183  	28,055914  	72,406492  	0,045656  	0,023134  	-2041,278511  	12418,366285  	-0,036402  	-0,049995  	0,289010  	0,146444  	-4,014337  	9626,575035  	11911,693066  	1,727645  	-0,047947  
180,554000  	18,457963  	39,563911  	26,530474  	956,927186  	79,998495  	73,465266  	0,004511  	0,008477  	0,003963  	0,004067  	0,004397  	-0,000000  	-0,000000  	25,298263  	21,711723  	23,142218  	25,060412  	32,018876  	29,996074  	31,803443  	33,073435  	40,221381  	38,512616  	42,692527  	67,018346  	29,032500  	28,068898  	28,057196  	72,408044  	0,060898  	0,030858  	-2724,008899  	22429,778370  	-0,022140  	-0,050005  	0,341031  	0,172803  	-4,732756  	9629,974314  	11940,883625  	1,731879  	-0,047955  
181,554000  	18,433674  	39,577983  	26,530751  	57,696365  	79,990872  	73,452202  	0,004523  	0,008457  	0,003962  	0,004078  	0,004365  	-0,000001  	-0,000000  	25,278027  	21,706060  	23,129302  	25,057713  	32,015049  	29,996515  	31,797127  	33,070857  	40,212798  	38,517011  	42,686034  	67,011043  	29,029152  	28,060855  	28,052566  	72,405096  	0,069808  	0,035372  	-3128,254733  	1684,515999  	-0,053724  	-0,050013  	0,315129  	0,159678  	-4,376924  	9587,810524  	12190,465030  	1,768077  	-0,047963  
182,553000  	18,408465  	39,586069  	26,530812  	657,183579  	79,982061  	73,435802  	0,004522  	0,008558  	0,003963  	0,004128  	0,004337  	0,000000  	-0,000000  	25,285051  	21,706889  	23,128743  	25,077747  	32,022634  	30,000864  	31,801249  	33,067886  	40,210938  	38,515148  	42,696136  	67,009401  	29,030556  	28,051221  	28,053751  	72,413983  	0,110296  	0,055888  	-4950,384848  	18387,517219  	-0,027532  	-0,049998  	0,292945  	0,148437  	-4,073511  	9804,614469  	12173,589016  	1,765630  	-0,047949  
183,557000  	18,405153  	39,585976  	26,531642  	657,183579  	79,981905  	73,427477  	0,004509  	0,008483  	0,003963  	0,004057  	0,004359  	-0,000001  	-0,000000  	25,300527  	21,703908  	23,139944  	25,069094  	32,014953  	29,999972  	31,805171  	33,070056  	40,215141  	38,524824  	42,693762  	67,010642  	29,032519  	28,063075  	28,065145  	72,421264  	0,052760  	0,026734  	-2368,376003  	18390,698958  	-0,027537  	-0,050007  	0,310487  	0,157326  	-4,322821  	9643,385371  	11898,079278  	1,725671  	-0,047958  
184,553000  	18,407668  	39,584865  	26,533118  	57,696365  	79,984154  	73,432778  	0,004515  	0,008483  	0,003965  	0,004104  	0,004374  	-0,000001  	-0,000000  	25,287922  	21,701700  	23,128423  	25,065342  	32,010127  	29,992271  	31,799683  	33,072486  	40,226070  	38,517403  	42,691906  	67,002361  	29,011889  	28,049713  	28,051562  	72,409123  	0,091168  	0,046196  	-4091,790383  	1684,473293  	-0,053727  	-0,050016  	0,322276  	0,163300  	-4,484875  	9643,676838  	12020,066726  	1,743363  	-0,047965  
185,555000  	18,388838  	39,593228  	26,533548  	956,927186  	79,982655  	73,430938  	0,004519  	0,008302  	0,003963  	0,004085  	0,004357  	-0,000001  	-0,000000  	25,300452  	21,717046  	23,143411  	25,079354  	32,031590  	30,003680  	31,810532  	33,071697  	40,225221  	38,525846  	42,699422  	67,019810  	29,037955  	28,066161  	28,079639  	72,421044  	0,075407  	0,038209  	-3388,768380  	22430,966359  	-0,022142  	-0,050008  	0,309060  	0,156603  	-4,301182  	9252,735026  	12102,978083  	1,755389  	-0,047958  
186,554000  	18,349277  	39,596067  	26,534840  	357,439972  	79,984842  	73,446154  	0,004509  	0,008656  	0,003961  	0,004069  	0,004348  	-0,000000  	-0,000000  	25,300479  	21,717888  	23,138489  	25,079403  	32,029476  	30,007234  	31,811604  	33,091999  	40,221941  	38,527042  	42,699271  	67,022332  	29,035634  	28,080986  	28,063295  	72,414237  	0,062377  	0,031607  	-2808,802211  	12420,040269  	-0,036407  	-0,050004  	0,301788  	0,152918  	-4,191631  	10015,658387  	11899,258480  	1,725842  	-0,047955  
187,555000  	18,307141  	39,587457  	26,535762  	1256,670793  	79,986341  	73,447775  	0,004510  	0,008326  	0,003965  	0,004079  	0,004345  	0,000001  	-0,000000  	25,292752  	21,707304  	23,135637  	25,070080  	32,021176  	30,004086  	31,812560  	33,081840  	40,223746  	38,526090  	42,707156  	67,019632  	29,031319  	28,078545  	28,060909  	72,413714  	0,070569  	0,035758  	-3182,695071  	25481,685742  	-0,018509  	-0,049992  	0,299148  	0,151580  	-4,154881  	9304,264696  	11916,035638  	1,728275  	-0,047944  
188,555000  	18,291011  	39,582705  	26,536438  	1256,670793  	79,987404  	73,454884  	0,004515  	0,008487  	0,003963  	0,004087  	0,004333  	-0,000001  	-0,000000  	25,295814  	21,712412  	23,144492  	25,077738  	32,016576  	30,010110  	31,811533  	33,074424  	40,228532  	38,526619  	42,698181  	67,014644  	29,031570  	28,095612  	28,069071  	72,421190  	0,077491  	0,039265  	-3496,779315  	25491,484260  	-0,018516  	-0,050013  	0,289860  	0,146874  	-4,022168  	9651,557788  	12024,684681  	1,744033  	-0,047963  
189,564000  	18,297972  	39,593660  	26,538067  	1256,670793  	79,988122  	73,441446  	0,004522  	0,008599  	0,003965  	0,004098  	0,004329  	0,000000  	-0,000000  	25,298868  	21,714541  	23,142296  	25,071386  	32,024214  	30,002186  	31,802000  	33,075856  	40,232274  	38,526167  	42,696495  	67,021778  	29,028392  	28,100684  	28,067859  	72,426850  	0,085848  	0,043500  	-3874,608243  	25483,682715  	-0,018510  	-0,049996  	0,286783  	0,145315  	-3,988085  	9892,620061  	12172,875846  	1,765526  	-0,047948  
190,556000  	18,303921  	39,589587  	26,538744  	1256,670793  	79,985560  	73,438203  	0,004512  	0,008499  	0,003964  	0,004089  	0,004342  	0,000000  	-0,000000  	25,294534  	21,710693  	23,135573  	25,069490  	32,017492  	29,994070  	31,804238  	33,069305  	40,225602  	38,519594  	42,696839  	67,018301  	29,026369  	28,108704  	28,056616  	72,412635  	0,078420  	0,039736  	-3537,697559  	25483,479801  	-0,018510  	-0,049996  	0,297363  	0,150676  	-4,135646  	9678,004248  	11953,537104  	1,733714  	-0,047948  
191,555000  	18,331429  	39,589309  	26,539942  	1256,670793  	79,977531  	73,429348  	0,004515  	0,008436  	0,003962  	0,004157  	0,004360  	0,000000  	-0,000000  	25,303037  	21,719140  	23,139064  	25,082422  	32,026362  	30,009339  	31,806162  	33,075045  	40,227683  	38,520732  	42,692144  	67,018290  	29,035761  	28,113854  	28,055685  	72,413403  	0,133736  	0,067765  	-6025,229259  	25483,231983  	-0,018510  	-0,049995  	0,311663  	0,157922  	-4,335060  	9541,607217  	12014,544951  	1,742562  	-0,047948  
192,557000  	18,342592  	39,592704  	26,541541  	57,696365  	79,973845  	73,428662  	0,004521  	0,008467  	0,003964  	0,004079  	0,004366  	0,000001  	-0,000000  	25,305374  	21,717265  	23,139659  	25,076595  	32,030544  	30,008581  	31,801958  	33,077538  	40,225576  	38,523358  	42,691382  	67,015818  	29,031974  	28,114554  	28,054618  	72,410861  	0,070800  	0,035875  	-3188,600834  	1683,269707  	-0,053703  	-0,049992  	0,316428  	0,160336  	-4,399324  	9608,270574  	12161,712258  	1,763907  	-0,047945  
193,553000  	18,339495  	39,596036  	26,543785  	57,696365  	79,973376  	73,436083  	0,004516  	0,008517  	0,003961  	0,004102  	0,004352  	-0,000000  	-0,000000  	25,299718  	21,709064  	23,133255  	25,078561  	32,028758  	30,009038  	31,801066  	33,075286  	40,226204  	38,524698  	42,694741  	67,008920  	29,029971  	28,111720  	28,045299  	72,408937  	0,089280  	0,045239  	-4022,084509  	1683,385975  	-0,053711  	-0,050000  	0,305232  	0,154663  	-4,238552  	9717,094184  	12033,970018  	1,745380  	-0,047952  
194,555000  	18,341825  	39,592457  	26,543109  	1256,670793  	79,975625  	73,423487  	0,004511  	0,008492  	0,003961  	0,004097  	0,004347  	-0,000001  	-0,000000  	25,296572  	21,704039  	23,133254  	25,078615  	32,022195  	30,006677  	31,806575  	33,075798  	40,222328  	38,523987  	42,693355  	67,008520  	29,034064  	28,106305  	28,046433  	72,407141  	0,084903  	0,043021  	-3823,857132  	25490,908142  	-0,018515  	-0,050013  	0,300798  	0,152416  	-4,186457  	9663,611256  	11930,800384  	1,730416  	-0,047962  
195,554000  	18,339617  	39,588846  	26,544584  	1256,670793  	79,973188  	73,430595  	0,004516  	0,008434  	0,003963  	0,004113  	0,004397  	-0,000001  	-0,000000  	25,291229  	21,703852  	23,131810  	25,069129  	32,019975  	30,003718  	31,803309  	33,073113  	40,215631  	38,518263  	42,693683  	67,006488  	29,029442  	28,097264  	28,051744  	72,407527  	0,097840  	0,049576  	-4406,204630  	25490,388215  	-0,018515  	-0,050012  	0,340556  	0,172562  	-4,732904  	9538,505773  	12042,097337  	1,746559  	-0,047961  
196,555000  	18,335815  	39,585698  	26,544769  	1256,670793  	79,968752  	73,435085  	0,004523  	0,008301  	0,003962  	0,004079  	0,004343  	0,000001  	-0,000000  	25,288209  	21,711037  	23,132009  	25,070434  	32,022481  	30,007984  	31,800857  	33,079243  	40,223031  	38,521192  	42,698918  	67,006387  	29,031765  	28,096497  	28,056276  	72,416986  	0,070779  	0,035864  	-3187,623404  	25481,819812  	-0,018509  	-0,049993  	0,298006  	0,151002  	-4,135912  	9251,381682  	12188,961017  	1,767859  	-0,047945  
197,553000  	18,325909  	39,578878  	26,546552  	1256,670793  	79,966659  	73,414538  	0,004508  	0,008571  	0,003961  	0,004082  	0,004345  	0,000000  	-0,000000  	25,299384  	21,717455  	23,136798  	25,081516  	32,031630  	30,014931  	31,808398  	33,088850  	40,236423  	38,528965  	42,701855  	67,012832  	29,043746  	28,101562  	28,060421  	72,423784  	0,072678  	0,036827  	-3273,628287  	25484,804128  	-0,018511  	-0,049999  	0,299471  	0,151744  	-4,167977  	9833,768324  	11866,156075  	1,721040  	-0,047951  
198,556000  	18,311312  	39,566904  	26,547597  	657,183579  	79,965034  	73,408303  	0,004513  	0,008252  	0,003962  	0,004128  	0,004339  	-0,000001  	-0,000000  	25,306361  	21,710871  	23,135687  	25,079927  	32,031720  	30,011152  	31,804644  	33,082091  	40,234420  	38,522586  	42,692763  	67,009791  	29,039136  	28,100977  	28,055255  	72,421085  	0,110260  	0,055870  	-4967,032528  	18391,077818  	-0,027538  	-0,050011  	0,294608  	0,149280  	-4,103171  	9145,485484  	11981,753233  	1,737806  	-0,047961  
199,555000  	18,297144  	39,563016  	26,548335  	-242,047242  	79,965284  	73,401319  	0,004525  	0,008594  	0,003962  	0,004080  	0,004317  	0,000001  	-0,000000  	25,300261  	21,708083  	23,135671  	25,073463  	32,019936  	29,999349  	31,795803  	33,077213  	40,229356  	38,521176  	42,681099  	67,006961  	29,033310  	28,105578  	28,055523  	72,418204  	0,071692  	0,036327  	-3231,176506  	-27102,441925  	-0,102361  	-0,049991  	0,277474  	0,140598  	-3,868803  	9881,529428  	12231,454676  	1,774023  	-0,047943  
200,557000  	18,295427  	39,566472  	26,548273  	-242,047242  	79,968908  	73,401069  	0,004519  	0,008304  	0,003963  	0,004128  	0,004349  	0,000000  	-0,000000  	25,298257  	21,715769  	23,132189  	25,077294  	32,027261  	30,000218  	31,799605  	33,076766  	40,228475  	38,526126  	42,684774  	67,014242  	29,039016  	28,107977  	28,061823  	72,412303  	0,110461  	0,055971  	-4979,717693  	-27106,559608  	-0,102376  	-0,049999  	0,302710  	0,153385  	-4,223149  	9256,867219  	12113,011897  	1,756844  	-0,047951  
201,553000  	18,314808  	39,557492  	26,549503  	1256,670793  	79,972376  	73,405652  	0,004506  	0,008671  	0,003963  	0,004076  	0,004351  	-0,000000  	-0,000000  	25,293980  	21,708379  	23,121726  	25,068630  	32,023676  	29,998679  	31,800561  	33,065046  	40,217258  	38,511348  	42,688428  	67,009517  	29,032807  	28,093217  	28,052370  	72,406776  	0,067881  	0,034396  	-3056,054259  	25486,352799  	-0,018512  	-0,050003  	0,303911  	0,153994  	-4,239197  	10048,394042  	11830,151560  	1,715818  	-0,047954  
202,553000  	18,308736  	39,549530  	26,549626  	1256,670793  	79,979062  	73,406962  	0,004516  	0,008125  	0,003962  	0,004087  	0,004328  	0,000000  	-0,000000  	25,302620  	21,713160  	23,138390  	25,068602  	32,020515  	30,000723  	31,809313  	33,072435  	40,232568  	38,524275  	42,692937  	67,014988  	29,049120  	28,087354  	28,054787  	72,417560  	0,076873  	0,038952  	-3460,571173  	25482,950368  	-0,018510  	-0,049996  	0,286191  	0,145015  	-3,995283  	8871,742737  	12051,912257  	1,747982  	-0,047948  
203,554000  	18,298984  	39,548975  	26,550087  	1256,670793  	79,983436  	73,402379  	0,004525  	0,008487  	0,003965  	0,004104  	0,004374  	-0,000000  	-0,000000  	25,292803  	21,703007  	23,141705  	25,062179  	32,010971  	29,988150  	31,800290  	33,073449  	40,224788  	38,528883  	42,681963  	67,011495  	29,043872  	28,082581  	28,035432  	72,419969  	0,090564  	0,045890  	-4078,699983  	25485,600458  	-0,018512  	-0,050001  	0,322170  	0,163246  	-4,503693  	9652,834021  	12228,157146  	1,773544  	-0,047953  
204,557000  	18,295120  	39,547061  	26,551132  	1256,670793  	79,983248  	73,399510  	0,004509  	0,008341  	0,003963  	0,004075  	0,004387  	0,000000  	-0,000000  	25,303499  	21,708555  	23,134458  	25,075352  	32,021859  	30,003684  	31,815761  	33,081725  	40,231592  	38,530522  	42,689625  	67,018985  	29,067696  	28,098551  	28,055009  	72,435508  	0,067017  	0,033958  	-3018,501138  	25482,408936  	-0,018509  	-0,049994  	0,332649  	0,168556  	-4,652071  	9336,897064  	11894,682892  	1,725178  	-0,047947  
205,553000  	18,290183  	39,532434  	26,550825  	956,927186  	79,981311  	73,375503  	0,004515  	0,008537  	0,003965  	0,004096  	0,004342  	0,000000  	-0,000000  	25,291494  	21,704728  	23,134088  	25,072658  	32,021354  	30,001236  	31,811448  	33,074903  	40,225223  	38,523925  	42,679482  	67,018381  	29,060183  	28,108060  	28,059357  	72,426231  	0,084046  	0,042587  	-3783,769891  	22426,344952  	-0,022138  	-0,049998  	0,297376  	0,150682  	-4,172700  	9759,186522  	12027,424385  	1,744430  	-0,047950  
206,557000  	18,297481  	39,534285  	26,551624  	357,439972  	79,983936  	73,370015  	0,004522  	0,008537  	0,003963  	0,004074  	0,004376  	0,000000  	-0,000000  	25,299570  	21,710091  	23,130773  	25,062337  	32,025564  	29,998275  	31,803560  	33,070886  	40,228892  	38,528693  	42,686303  	67,021762  	29,050178  	28,117033  	28,065810  	72,414518  	0,066586  	0,033740  	-2996,942953  	12418,029279  	-0,036403  	-0,049998  	0,324362  	0,164356  	-4,556945  	9760,355223  	12165,511126  	1,764458  	-0,047950  
207,553000  	18,320297  	39,536692  	26,551901  	1256,670793  	79,989122  	73,377218  	0,004519  	0,008354  	0,003963  	0,004105  	0,004340  	-0,000001  	-0,000000  	25,283734  	21,706455  	23,133465  	25,065725  	32,012743  	29,997339  	31,806100  	33,074588  	40,221408  	38,520222  	42,674799  	67,019072  	29,050737  	28,137435  	28,053536  	72,415456  	0,091379  	0,046302  	-4108,882784  	25488,225430  	-0,018514  	-0,050007  	0,295652  	0,149809  	-4,152346  	9363,949097  	12114,600643  	1,757074  	-0,047958  
208,556000  	18,341703  	39,530520  	26,551901  	57,696365  	79,988497  	73,391497  	0,004507  	0,008631  	0,003963  	0,004140  	0,004345  	0,000001  	-0,000000  	25,292082  	21,697286  	23,128700  	25,052334  	32,015717  	29,996615  	31,802736  	33,074482  	40,214534  	38,520117  	42,675177  	67,009770  	29,044722  	28,115077  	28,054360  	72,419050  	0,119897  	0,060753  	-5384,165626  	1682,615626  	-0,053700  	-0,049990  	0,299778  	0,151900  	-4,200813  	9962,886442  	11851,546673  	1,718922  	-0,047943  
209,555000  	18,347284  	39,515954  	26,551440  	1256,670793  	79,997370  	73,400913  	0,004515  	0,008459  	0,003963  	0,004106  	0,004335  	-0,000000  	-0,000000  	25,296410  	21,706718  	23,139755  	25,065906  	32,025077  	30,001383  	31,799475  	33,081772  	40,227235  	38,526688  	42,670210  	67,024801  	29,042910  	28,110504  	28,065656  	72,432503  	0,092499  	0,046870  	-4149,869995  	25484,978148  	-0,018511  	-0,050000  	0,291526  	0,147718  	-4,084841  	9592,126653  	12016,762134  	1,742884  	-0,047952  
210,554000  	18,338513  	39,514165  	26,552116  	1256,670793  	80,007555  	73,414133  	0,004526  	0,008332  	0,003961  	0,004056  	0,004314  	0,000001  	-0,000000  	25,289970  	21,699812  	23,123265  	25,054538  	32,003664  	29,995191  	31,795934  	33,063896  	40,219955  	38,518303  	42,668785  	67,009635  	29,041688  	28,083670  	28,051627  	72,414127  	0,052126  	0,026413  	-2339,363401  	25478,502771  	-0,018507  	-0,049986  	0,274847  	0,139267  	-3,849381  	9317,676460  	12264,931320  	1,778878  	-0,047939  
211,553000  	18,342561  	39,512868  	26,552300  	1256,670793  	80,008305  	73,416066  	0,004508  	0,008332  	0,003963  	0,004041  	0,004395  	-0,000000  	-0,000000  	25,283557  	21,703363  	23,124667  	25,066971  	32,024870  	30,000221  	31,804017  	33,060799  	40,221290  	38,512889  	42,657552  	67,010133  	29,048715  	28,083711  	28,054530  	72,418195  	0,039993  	0,020265  	-1794,372071  	25485,687461  	-0,018512  	-0,050002  	0,338854  	0,171700  	-4,744971  	9316,898976  	11882,537811  	1,723416  	-0,047953  
212,554000  	18,349247  	39,510955  	26,552731  	57,696365  	80,007992  	73,419184  	0,004511  	0,008556  	0,003963  	0,004054  	0,004339  	-0,000001  	-0,000000  	25,289064  	21,702021  	23,139847  	25,069061  	32,029568  	30,002857  	31,793392  	33,062763  	40,220986  	38,521021  	42,663079  	67,017826  	29,036094  	28,074409  	28,048870  	72,422266  	0,050189  	0,025431  	-2250,933274  	1683,115351  	-0,053718  	-0,050008  	0,294398  	0,149174  	-4,120317  	9801,104121  	11940,756526  	1,731860  	-0,047958  
213,555000  	18,334803  	39,510431  	26,553591  	956,927186  	80,013116  	73,409861  	0,004523  	0,008256  	0,003965  	0,004145  	0,004366  	-0,000001  	-0,000000  	25,281126  	21,697862  	23,121574  	25,056079  	32,015955  	29,988646  	31,798154  	33,066195  	40,226524  	38,514022  	42,650576  	67,011482  	29,027103  	28,059558  	28,055354  	72,431743  	0,124055  	0,062860  	-5567,453009  	22430,099646  	-0,022141  	-0,050008  	0,315774  	0,160005  	-4,429174  	9154,472172  	12191,185261  	1,768182  	-0,047958  
214,555000  	18,325296  	39,521663  	26,553100  	357,439972  	80,017427  	73,416222  	0,004523  	0,008518  	0,003965  	0,004081  	0,004325  	-0,000000  	-0,000000  	25,284410  	21,690422  	23,119865  	25,062012  	32,012317  	29,987507  	31,790344  	33,057946  	40,208431  	38,510041  	42,644887  	67,011816  	29,027703  	28,047721  	28,054299  	72,435013  	0,072096  	0,036532  	-3238,760524  	12419,148904  	-0,036407  	-0,050004  	0,283268  	0,143534  	-3,972007  	9719,067251  	12189,653004  	1,767960  	-0,047955  
215,554000  	18,324192  	39,524256  	26,553561  	357,439972  	80,015584  	73,418061  	0,004508  	0,008542  	0,003965  	0,004108  	0,004366  	0,000000  	-0,000000  	25,274641  	21,692300  	23,122506  	25,049739  	32,006669  	29,986726  	31,791957  	33,059207  	40,208474  	38,511159  	42,650153  	67,008350  	29,024542  	28,027417  	28,050555  	72,422321  	0,094320  	0,047792  	-4237,838043  	12416,999792  	-0,036401  	-0,049994  	0,315800  	0,160018  	-4,425702  	9770,360634  	11868,140242  	1,721328  	-0,047946  
216,555000  	18,311864  	39,523515  	26,553499  	956,927186  	80,005649  	73,414694  	0,004514  	0,008531  	0,003962  	0,004101  	0,004394  	-0,000000  	-0,000000  	25,264984  	21,682389  	23,113601  	25,044448  	31,998112  	29,979866  	31,778453  	33,048516  	40,200090  	38,502272  	42,637502  	67,002584  	29,018736  	28,004659  	28,044413  	72,413822  	0,088501  	0,044844  	-3978,582151  	22428,508332  	-0,022140  	-0,050004  	0,338274  	0,171406  	-4,735929  	9747,581576  	12003,381362  	1,740943  	-0,047955  
217,553000  	18,296684  	39,527959  	26,554022  	956,927186  	80,003087  	73,423487  	0,004523  	0,008356  	0,003963  	0,004105  	0,004367  	0,000000  	-0,000000  	25,260717  	21,679218  	23,111756  	25,044931  	32,002295  	29,979236  	31,777265  	33,043612  	40,201950  	38,496116  	42,630797  	67,006037  	29,020248  	28,004627  	28,041197  	72,411400  	0,091326  	0,046276  	-4109,406570  	22425,708708  	-0,022137  	-0,049997  	0,316875  	0,160563  	-4,428706  	9369,041294  	12200,922509  	1,769594  	-0,047949  
218,552000  	18,279204  	39,530551  	26,553837  	357,439972  	80,007274  	73,434773  	0,004512  	0,008237  	0,003963  	0,004089  	0,004342  	0,000001  	-0,000000  	25,269600  	21,684947  	23,117442  	25,047138  	32,006614  	29,983525  	31,786754  	33,053641  	40,209075  	38,502450  	42,635441  	67,013415  	29,031126  	28,013087  	28,045094  	72,418270  	0,078940  	0,039999  	-3555,395525  	12416,561331  	-0,036399  	-0,049992  	0,296966  	0,150475  	-4,145973  	9111,913627  	11951,694159  	1,733447  	-0,047945  
219,617000  	18,283252  	39,528700  	26,554575  	1256,670793  	80,009898  	73,423549  	0,004509  	0,008676  	0,003962  	0,004074  	0,004318  	-0,000001  	-0,000000  	25,271852  	21,688650  	23,119843  	25,047459  	32,002396  	29,987586  	31,788635  	33,055772  	40,209637  	38,506921  	42,639360  	67,015992  	29,030104  	28,006654  	28,047548  	72,420792  	0,066335  	0,033612  	-2986,862006  	25487,797348  	-0,018513  	-0,050007  	0,278160  	0,140946  	-3,891604  	10059,648095  	11883,604036  	1,723571  	-0,047957  
220,553000  	18,294599  	39,530057  	26,556235  	1256,670793  	80,013460  	73,416877  	0,004521  	0,008459  	0,003962  	0,004095  	0,004395  	-0,000000  	-0,000000  	25,262197  	21,683201  	23,112292  	25,042098  	31,997657  	29,980783  	31,781990  	33,052631  	40,203405  	38,503031  	42,634051  	67,007815  	29,024232  	28,001493  	28,047871  	72,420748  	0,083251  	0,042184  	-3746,759101  	25486,926209  	-0,018513  	-0,050005  	0,339203  	0,171877  	-4,752991  	9591,854286  	12161,684013  	1,763903  	-0,047955  
221,555000  	18,318917  	39,538451  	26,555528  	1256,670793  	80,019677  	73,407523  	0,004525  	0,008518  	0,003965  	0,004114  	0,004360  	0,000001  	-0,000000  	25,260712  	21,680889  	23,110826  	25,041244  	31,996093  	29,972849  	31,779708  	33,051197  	40,200925  	38,493905  	42,628492  	67,005312  	29,021324  	28,010139  	28,043351  	72,415912  	0,099274  	0,050303  	-4464,539296  	25479,549445  	-0,018507  	-0,049988  	0,311160  	0,157667  	-4,370340  	9717,727348  	12243,409107  	1,775756  	-0,047942  
222,556000  	18,343573  	39,533329  	26,556389  	657,183579  	80,018302  	73,420868  	0,004509  	0,008438  	0,003965  	0,004092  	0,004363  	-0,000001  	-0,000000  	25,272362  	21,685470  	23,122528  	25,044844  	32,003959  	29,980921  	31,788756  	33,051473  	40,206658  	38,498773  	42,634649  	67,013538  	29,022815  	28,024990  	28,044512  	72,420049  	0,080781  	0,040933  	-3627,789078  	18389,303146  	-0,027536  	-0,050006  	0,313463  	0,158834  	-4,392891  	9546,083936  	11895,247779  	1,725260  	-0,047957  
223,554000  	18,358109  	39,524719  	26,556942  	657,183579  	80,015116  	73,437455  	0,004513  	0,008513  	0,003963  	0,004117  	0,004336  	-0,000001  	-0,000000  	25,275039  	21,688099  	23,124398  	25,049017  	32,007418  	29,986626  	31,790188  	33,058170  	40,208672  	38,506784  	42,638747  	67,014957  	29,023352  	28,027128  	28,055207  	72,425782  	0,101403  	0,051382  	-4548,912094  	18390,418802  	-0,027538  	-0,050010  	0,292376  	0,148149  	-4,085104  	9707,001757  	11984,937786  	1,738268  	-0,047960  
224,557000  	18,363384  	39,526570  	26,556819  	1256,670793  	80,013678  	73,453231  	0,004524  	0,008116  	0,003962  	0,004064  	0,004341  	0,000000  	-0,000000  	25,264339  	21,682639  	23,111519  	25,047269  	31,993821  	29,973126  	31,776767  	33,054255  	40,195030  	38,499445  	42,623889  	67,004398  	29,016875  	28,019357  	28,047785  	72,417487  	0,058643  	0,029715  	-2630,274978  	25484,165802  	-0,018511  	-0,049999  	0,296244  	0,150109  	-4,128323  	8851,229628  	12207,574059  	1,770559  	-0,047950  
225,554000  	18,377338  	39,527095  	26,557004  	956,927186  	80,014147  	73,445000  	0,004516  	0,008371  	0,003963  	0,004106  	0,004369  	-0,000001  	-0,000000  	25,258549  	21,673139  	23,105923  	25,039164  	31,984613  	29,965296  	31,772168  	33,040745  	40,188157  	38,494694  	42,613790  	66,999458  	29,012413  	28,018561  	28,032141  	72,410080  	0,092913  	0,047080  	-4164,716286  	22432,736837  	-0,022144  	-0,050014  	0,318895  	0,161586  	-4,449863  	9402,345736  	12051,326186  	1,747897  	-0,047964  
226,556000  	18,388685  	39,519195  	26,557680  	357,439972  	80,012585  	73,425607  	0,004510  	0,008501  	0,003962  	0,004122  	0,004351  	0,000001  	-0,000000  	25,260146  	21,678442  	23,109080  	25,042979  	31,992437  	29,974893  	31,781602  	33,050318  	40,203564  	38,495254  	42,624656  	67,010611  	29,016356  	28,014632  	28,047421  	72,408263  	0,105200  	0,053306  	-4711,185031  	12415,681576  	-0,036397  	-0,049989  	0,304496  	0,154290  	-4,260463  	9682,481674  	11909,482943  	1,727324  	-0,047942  
227,561000  	18,396137  	39,516510  	26,557588  	357,439972  	80,013678  	73,404811  	0,004517  	0,008266  	0,003963  	0,004064  	0,004343  	0,000000  	-0,000000  	25,268061  	21,691426  	23,111100  	25,048732  	32,002112  	29,978329  	31,789047  	33,055497  	40,201895  	38,495333  	42,624440  	67,018021  	29,021753  	28,002140  	28,059401  	72,417591  	0,058379  	0,029581  	-2613,113289  	12417,652229  	-0,036403  	-0,049998  	0,297844  	0,150920  	-4,181223  	9175,505253  	12072,290572  	1,750938  	-0,047950  
228,553000  	18,394419  	39,526076  	26,559186  	-242,047242  	80,016740  	73,392838  	0,004521  	0,008603  	0,003962  	0,004072  	0,004341  	0,000000  	-0,000000  	25,274966  	21,683418  	23,111548  	25,049179  	31,992437  	29,974679  	31,782159  	33,045503  	40,193658  	38,494955  	42,618715  	67,013662  	29,015571  	27,977239  	28,049129  	72,419036  	0,065257  	0,033066  	-2922,561426  	-27105,120808  	-0,102367  	-0,049996  	0,296291  	0,150133  	-4,168879  	9901,896095  	12153,231884  	1,762677  	-0,047948  
229,554000  	18,388623  	39,532279  	26,558848  	956,927186  	80,013897  	73,408708  	0,004509  	0,008538  	0,003961  	0,004103  	0,004362  	-0,000001  	-0,000000  	25,270523  	21,683060  	23,110766  	25,047347  	31,993578  	29,983278  	31,776725  	33,047787  	40,197337  	38,500161  	42,617659  	67,012808  	29,015255  	27,962302  	28,048647  	72,416715  	0,090097  	0,045653  	-4037,303046  	22429,850957  	-0,022141  	-0,050007  	0,313340  	0,158772  	-4,396322  	9760,909153  	11890,813413  	1,724617  	-0,047958  
230,555000  	18,388807  	39,524935  	26,558910  	357,439972  	80,012710  	73,406151  	0,004514  	0,008323  	0,003964  	0,004115  	0,004365  	0,000000  	-0,000000  	25,273528  	21,686038  	23,111098  	25,047716  	31,995227  	29,980833  	31,787229  	33,052730  	40,208070  	38,506464  	42,622465  	67,013107  	29,017107  	27,961727  	28,041706  	72,414687  	0,100137  	0,050740  	-4485,628083  	12417,300853  	-0,036402  	-0,049997  	0,315245  	0,159737  	-4,423958  	9297,164766  	11990,996205  	1,739147  	-0,047949  
231,553000  	18,386047  	39,519472  	26,559463  	1256,670793  	80,021427  	73,415567  	0,004524  	0,008655  	0,003964  	0,004108  	0,004316  	0,000001  	-0,000000  	25,268405  	21,676373  	23,109469  	25,043183  	31,997874  	29,973171  	31,773694  	33,049963  	40,189410  	38,496331  	42,614316  	67,011569  	29,008497  	27,948748  	28,037283  	72,409391  	0,094339  	0,047802  	-4225,373338  	25481,420870  	-0,018509  	-0,049993  	0,276656  	0,140184  	-3,882023  	10013,976080  	12226,533094  	1,773309  	-0,047945  
232,555000  	18,380834  	39,517497  	26,559770  	1256,670793  	80,028487  	73,429223  	0,004519  	0,008523  	0,003963  	0,004083  	0,004355  	0,000001  	-0,000000  	25,260325  	21,672412  	23,105326  	25,017588  	31,975378  	29,958661  	31,768267  	33,036097  	40,185023  	38,480877  	42,599739  	67,008777  	29,006386  	27,939550  	28,031693  	72,399566  	0,073639  	0,037313  	-3298,732069  	25480,920104  	-0,018508  	-0,049992  	0,307669  	0,155898  	-4,312886  	9730,500288  	12102,151935  	1,755269  	-0,047944  
233,554000  	18,359489  	39,510677  	26,560262  	1256,670793  	80,029737  	73,443566  	0,004505  	0,008484  	0,003964  	0,004097  	0,004373  	-0,000000  	-0,000000  	25,266441  	21,681593  	23,111991  	25,039169  	31,995599  	29,976009  	31,784925  	33,043964  	40,192711  	38,495146  	42,612938  	67,019051  	29,000474  	27,959054  	28,054792  	72,408032  	0,085266  	0,043205  	-3822,189587  	25486,441295  	-0,018512  	-0,050004  	0,321357  	0,162834  	-4,495848  	9644,687779  	11817,596936  	1,713998  	-0,047955  
234,554000  	18,331460  	39,514566  	26,559893  	657,183579  	80,032611  	73,447931  	0,004517  	0,008411  	0,003963  	0,004106  	0,004357  	-0,000000  	-0,000000  	25,265278  	21,676873  	23,105367  	25,039421  	31,991890  	29,966256  	31,764408  	33,037401  	40,188156  	38,492333  	42,605605  	67,010096  	29,002315  	27,956481  	28,036984  	72,395432  	0,092413  	0,046826  	-4148,853432  	18387,812052  	-0,027534  	-0,050002  	0,309303  	0,156726  	-4,326228  	9487,333364  	12061,183472  	1,749327  	-0,047953  
235,556000  	18,311772  	39,524935  	26,560170  	657,183579  	80,027987  	73,455788  	0,004525  	0,008438  	0,003963  	0,004094  	0,004356  	-0,000000  	-0,000000  	25,259031  	21,668060  	23,114387  	25,031126  	31,983649  	29,962102  	31,768053  	33,046338  	40,179977  	38,483003  	42,598809  	67,008317  	28,986703  	27,967995  	28,037917  	72,398801  	0,082610  	0,041859  	-3714,021104  	18388,236575  	-0,027535  	-0,050004  	0,308343  	0,156240  	-4,304637  	9547,014935  	12245,569802  	1,776070  	-0,047955  
236,553000  	18,321033  	39,539439  	26,560600  	1256,670793  	80,018615  	73,468384  	0,004509  	0,008498  	0,003964  	0,004101  	0,004341  	0,000000  	-0,000000  	25,262666  	21,676594  	23,107115  	25,031838  	31,983036  	29,965942  	31,769686  	33,040671  	40,190285  	38,493982  	42,598185  	67,005766  	28,981218  	27,981715  	28,040155  	72,394104  	0,088590  	0,044889  	-3983,848013  	25482,537397  	-0,018510  	-0,049995  	0,296327  	0,150151  	-4,123064  	9675,451782  	11892,063226  	1,724798  	-0,047947  
237,554000  	18,340445  	39,544191  	26,560477  	1256,670793  	80,015022  	73,473467  	0,004514  	0,008529  	0,003966  	0,004131  	0,004357  	-0,000000  	-0,000000  	25,266025  	21,671227  	23,100737  	25,025591  	31,990268  	29,965704  	31,765983  	33,034417  	40,184736  	38,492014  	42,598111  	67,015708  	28,972273  	27,977583  	28,036391  	72,375950  	0,112873  	0,057194  	-5072,348711  	25485,928583  	-0,018512  	-0,050003  	0,308953  	0,156549  	-4,293053  	9742,077645  	11999,137645  	1,740328  	-0,047954  
238,556000  	18,330939  	39,553326  	26,561031  	657,183579  	80,011960  	73,466794  	0,004523  	0,008381  	0,003962  	0,004110  	0,004393  	-0,000000  	-0,000000  	25,271010  	21,675451  	23,111951  	25,034128  	31,991251  	29,964900  	31,764283  	33,035051  	40,185567  	38,485940  	42,602347  	67,011306  	28,968123  	27,980459  	28,033876  	72,390188  	0,095815  	0,048550  	-4309,538366  	18388,031755  	-0,027534  	-0,050003  	0,337620  	0,171074  	-4,693973  	9424,148519  	12185,042110  	1,767291  	-0,047954  
239,555000  	18,317967  	39,561751  	26,560662  	657,183579  	80,005837  	73,475057  	0,004519  	0,008621  	0,003963  	0,004078  	0,004348  	0,000000  	-0,000000  	25,262675  	21,673696  	23,108652  	25,040744  	31,978356  	29,956243  	31,775195  	33,038431  	40,186659  	38,487772  	42,598251  	67,009173  	28,968719  	28,000707  	28,039854  	72,380967  	0,069742  	0,035339  	-3140,003313  	18385,320791  	-0,027530  	-0,049995  	0,302236  	0,153145  	-4,192800  	9940,003389  	12109,078868  	1,756273  	-0,047947  
240,557000  	18,316127  	39,565022  	26,560600  	1256,670793  	80,001213  	73,483912  	0,004508  	0,008553  	0,003962  	0,004100  	0,004334  	-0,000000  	-0,000000  	25,263068  	21,671278  	23,105778  	25,040015  	31,990097  	29,969014  	31,773716  	33,037670  	40,188378  	38,480164  	42,603160  	67,002264  	28,965417  	28,004100  	28,042327  	72,387561  	0,087805  	0,044491  	-3954,219086  	25486,607643  	-0,018513  	-0,050004  	0,290415  	0,147155  	-4,020501  	9794,782382  	11881,118531  	1,723211  	-0,047955  
241,553000  	18,332717  	39,564651  	26,561277  	-242,047242  	79,998807  	73,469694  	0,004513  	0,008553  	0,003962  	0,004089  	0,004390  	-0,000000  	-0,000000  	25,270187  	21,680742  	23,103009  	25,033792  	31,997480  	29,969232  	31,776235  	33,040285  	40,189629  	38,485061  	42,608080  	67,015942  	28,971023  	28,014689  	28,054553  	72,391982  	0,078373  	0,039712  	-3526,641854  	-27109,066459  	-0,102381  	-0,050004  	0,335396  	0,169948  	-4,651621  	9795,092951  	11988,291806  	1,738755  	-0,047955  
242,556000  	18,352528  	39,564898  	26,561277  	357,439972  	79,997307  	73,450363  	0,004525  	0,008541  	0,003961  	0,004089  	0,004356  	-0,000001  	-0,000000  	25,259194  	21,676265  	23,099074  	25,033738  	31,986427  	29,963908  	31,767620  	33,039022  	40,186574  	38,482603  	42,600701  	67,013390  	28,962669  	28,013448  	28,040285  	72,386425  	0,078777  	0,039917  	-3541,552532  	12419,342690  	-0,036408  	-0,050007  	0,308404  	0,156271  	-4,288941  	9767,448786  	12242,159294  	1,775575  	-0,047957  
243,555000  	18,363384  	39,563047  	26,561922  	357,439972  	79,999963  	73,462772  	0,004510  	0,008391  	0,003963  	0,004075  	0,004363  	0,000001  	-0,000000  	25,267609  	21,674418  	23,095364  	25,040441  	31,986854  	29,967107  	31,771345  	33,041335  	40,190591  	38,483328  	42,600747  	67,007873  	28,967946  	28,021609  	28,033376  	72,394285  	0,067461  	0,034183  	-3030,991037  	12415,139321  	-0,036396  	-0,049988  	0,313747  	0,158978  	-4,356749  	9444,593712  	11920,519432  	1,728925  	-0,047941  
244,559000  	18,359275  	39,558479  	26,562599  	956,927186  	80,008836  	73,473061  	0,004512  	0,008453  	0,003964  	0,004131  	0,004379  	-0,000001  	-0,000000  	25,269404  	21,669778  	23,094514  	25,040626  	31,990777  	29,969262  	31,773862  	33,043423  	40,190773  	38,484531  	42,596244  	67,005938  	28,968534  	28,021904  	28,037424  	72,392136  	0,112702  	0,057107  	-5063,554360  	22431,431215  	-0,022143  	-0,050012  	0,326041  	0,165207  	-4,526491  	9579,220006  	11955,069362  	1,733936  	-0,047961  
245,556000  	18,362372  	39,554128  	26,561676  	956,927186  	80,013553  	73,470879  	0,004523  	0,008481  	0,003962  	0,004127  	0,004311  	-0,000000  	-0,000000  	25,264028  	21,671825  	23,095820  	25,039715  	31,984208  	29,963496  	31,773937  	33,047491  	40,188128  	38,488661  	42,596262  	67,010551  	28,968084  	28,033956  	28,046606  	72,387428  	0,109225  	0,055345  	-4905,626956  	22428,579524  	-0,022140  	-0,050005  	0,272914  	0,138288  	-3,792919  	9638,978689  	12205,194470  	1,770214  	-0,047955  
246,556000  	18,386722  	39,556103  	26,562353  	357,439972  	80,009367  	73,449677  	0,004522  	0,008553  	0,003966  	0,004092  	0,004395  	0,000000  	-0,000000  	25,256313  	21,672376  	23,095642  	25,039944  	31,981943  	29,960571  	31,773823  	33,042261  	40,187717  	38,487684  	42,598242  	67,015336  	28,971983  	28,054271  	28,037518  	72,388611  	0,081482  	0,041288  	-3655,718709  	12417,809578  	-0,036404  	-0,050000  	0,339029  	0,171788  	-4,724012  	9794,130117  	12174,711730  	1,765793  	-0,047951  
247,556000  	18,415887  	39,554622  	26,561799  	1256,670793  	80,007211  	73,441414  	0,004507  	0,008473  	0,003963  	0,004130  	0,004345  	0,000000  	-0,000000  	25,261402  	21,674992  	23,097583  	25,037813  	31,988120  	29,964802  	31,773481  	33,041107  	40,192265  	38,488932  	42,599889  	67,012402  	28,978467  	28,068967  	28,032130  	72,389367  	0,111795  	0,056647  	-5008,437453  	25484,004647  	-0,018511  	-0,049999  	0,299872  	0,151947  	-4,182288  	9622,698231  	11857,583907  	1,719797  	-0,047950  
248,557000  	18,419076  	39,551289  	26,563459  	57,696365  	80,006149  	73,439606  	0,004515  	0,008480  	0,003961  	0,004109  	0,004328  	0,000001  	-0,000000  	25,265589  	21,676861  	23,105282  	25,041734  	31,991466  	29,968640  	31,769502  	33,047197  	40,194276  	38,492914  	42,600633  	67,011846  	28,979992  	28,080318  	28,038183  	72,393537  	0,095210  	0,048244  	-4264,122142  	1681,923731  	-0,053698  	-0,049989  	0,285801  	0,144817  	-3,986483  	9637,774615  	12018,421491  	1,743125  	-0,047942  
249,670000  	18,404018  	39,551598  	26,562998  	1256,670793  	80,001900  	73,448897  	0,004523  	0,008516  	0,003962  	0,004098  	0,004368  	-0,000001  	-0,000000  	25,265145  	21,674139  	23,112451  	25,047055  	31,995625  	29,974333  	31,776129  	33,049163  	40,198067  	38,492629  	42,603326  	67,015694  	28,978131  	28,089091  	28,040148  	72,400981  	0,086078  	0,043616  	-3857,946476  	25492,240687  	-0,018517  	-0,050017  	0,317676  	0,160969  	-4,421965  	9714,693112  	12197,970972  	1,769166  	-0,047966  
250,564000  	18,391199  	39,554745  	26,562814  	1256,670793  	79,997026  	73,462242  	0,004511  	0,008141  	0,003962  	0,004112  	0,004321  	-0,000001  	-0,000000  	25,266829  	21,678567  	23,110285  	25,042623  	31,995896  	29,974228  	31,781488  	33,046944  	40,200229  	38,489801  	42,603350  	67,015933  	28,977972  	28,091507  	28,039529  	72,399966  	0,097422  	0,049365  	-4369,671953  	25488,336918  	-0,018514  	-0,050008  	0,280457  	0,142109  	-3,893038  	8906,413965  	11927,749992  	1,729974  	-0,047959  
251,557000  	18,389911  	39,548450  	26,563367  	1256,670793  	79,990528  	73,457035  	0,004513  	0,008453  	0,003964  	0,004110  	0,004388  	-0,000001  	-0,000000  	25,263632  	21,681745  	23,106142  	25,039317  	31,988707  	29,965370  	31,772947  	33,045613  	40,198388  	38,490363  	42,595945  	67,017763  	28,976404  	28,088613  	28,041989  	72,397123  	0,095446  	0,048363  	-4280,013166  	25488,406721  	-0,018514  	-0,050008  	0,333893  	0,169186  	-4,633870  	9578,616554  	11985,213169  	1,738308  	-0,047959  
252,672000  	18,386293  	39,542093  	26,563552  	57,696365  	79,988778  	73,435397  	0,004521  	0,008546  	0,003964  	0,004079  	0,004381  	-0,000001  	-0,000000  	25,270578  	21,678572  	23,108513  	25,041242  	31,993846  	29,973314  	31,782125  	33,049721  	40,207855  	38,496200  	42,598694  	67,020691  	28,977128  	28,084775  	28,046173  	72,402411  	0,070424  	0,035684  	-3157,568869  	1682,474600  	-0,053716  	-0,050007  	0,327669  	0,166033  	-4,561326  	9778,981573  	12156,254032  	1,763116  	-0,047957  
253,556000  	18,388286  	39,549931  	26,564105  	-242,047242  	79,988810  	73,413977  	0,004523  	0,008521  	0,003963  	0,004074  	0,004338  	0,000001  	-0,000000  	25,271481  	21,682318  	23,104504  	25,040644  	31,996798  	29,982899  	31,779840  	33,047689  	40,201870  	38,492830  	42,602807  	67,016382  	28,972716  	28,077728  	28,033725  	72,403235  	0,066223  	0,033556  	-2970,022917  	-27102,498558  	-0,102355  	-0,049990  	0,293769  	0,148855  	-4,102791  	9724,269810  	12192,816374  	1,768419  	-0,047943  
254,554000  	18,390862  	39,552709  	26,563736  	357,439972  	79,986623  	73,407055  	0,004509  	0,008388  	0,003964  	0,004129  	0,004366  	-0,000002  	-0,000000  	25,265848  	21,676001  	23,102615  	25,043187  	31,989701  	29,974317  	31,769402  	33,045049  	40,194444  	38,492663  	42,596284  	67,011774  	28,960652  	28,068855  	28,028219  	72,406686  	0,110854  	0,056170  	-4971,708375  	12422,260142  	-0,036417  	-0,050020  	0,316236  	0,160239  	-4,419731  	9438,921409  	11886,901567  	1,724049  	-0,047969  
255,554000  	18,376234  	39,554838  	26,563828  	1256,670793  	79,982499  	73,418654  	0,004513  	0,008357  	0,003963  	0,004073  	0,004319  	0,000000  	-0,000000  	25,262019  	21,674713  	23,108699  	25,041594  	31,993544  	29,975730  	31,774690  	33,045006  	40,199396  	38,496665  	42,597407  	67,015622  	28,965704  	28,066166  	28,034840  	72,406727  	0,065908  	0,033396  	-2958,287313  	25483,332470  	-0,018510  	-0,049997  	0,278523  	0,141130  	-3,883367  	9370,821936  	11983,476140  	1,738056  	-0,047949  
256,554000  	18,356177  	39,561133  	26,564136  	1256,670793  	79,981686  	73,428444  	0,004524  	0,008580  	0,003963  	0,004078  	0,004349  	0,000001  	-0,000000  	25,267180  	21,673858  	23,104789  	25,041971  	31,990070  	29,976497  	31,770615  	33,041389  	40,195256  	38,492519  	42,598722  	67,015379  	28,966153  	28,061831  	28,037313  	72,411712  	0,070173  	0,035557  	-3153,631305  	25479,836421  	-0,018508  	-0,049990  	0,302953  	0,153509  	-4,217170  	9851,373829  	12210,264335  	1,770949  	-0,047943  
257,553000  	18,341212  	39,563325  	26,565580  	1256,670793  	79,981468  	73,413759  	0,004515  	0,008536  	0,003963  	0,004091  	0,004349  	0,000000  	-0,000000  	25,273401  	21,681793  	23,104956  	25,044490  	31,998484  	29,981065  	31,785187  	33,052459  	40,194956  	38,492957  	42,592959  	67,012219  	28,961174  	28,055440  	28,029735  	72,407427  	0,080264  	0,040671  	-3610,075945  	25481,829450  	-0,018509  	-0,049994  	0,303031  	0,153548  	-4,227553  	9757,487236  	12017,623587  	1,743009  	-0,047946  
258,557000  	18,338023  	39,553079  	26,565212  	1256,670793  	79,979218  	73,420992  	0,004512  	0,008306  	0,003964  	0,004096  	0,004317  	0,000000  	-0,000000  	25,278703  	21,676969  	23,108431  	25,043181  	32,003764  	29,981256  	31,783966  	33,049475  	40,206546  	38,496018  	42,599274  	67,020457  	28,965141  	28,062115  	28,042980  	72,406027  	0,084655  	0,042895  	-3806,276094  	25483,024569  	-0,018510  	-0,049997  	0,277279  	0,140499  	-3,862707  	9261,195375  	11950,846828  	1,733324  	-0,047949  
259,554000  	18,340599  	39,549653  	26,564750  	1256,670793  	79,980843  	73,434898  	0,004518  	0,008469  	0,003964  	0,004109  	0,004354  	-0,000001  	-0,000000  	25,252136  	21,669221  	23,092652  	25,035446  	31,979445  	29,968250  	31,770744  	33,045195  	40,194590  	38,485347  	42,587641  	67,009058  	28,950549  	28,035054  	28,028181  	72,394807  	0,094574  	0,047921  	-4251,057432  	25491,855511  	-0,018516  	-0,050016  	0,306572  	0,155342  	-4,262794  	9613,115873  	12092,810109  	1,753914  	-0,047965  
260,615000  	18,347836  	39,554776  	26,565058  	57,696365  	79,990090  	73,419558  	0,004523  	0,008505  	0,003964  	0,004102  	0,004335  	-0,000000  	-0,000000  	25,271042  	21,682192  	23,111182  	25,052836  	32,007280  	29,985309  	31,782054  	33,053005  	40,198201  	38,500115  	42,608239  	67,021429  	28,959713  	28,060123  	28,042873  	72,406308  	0,089263  	0,045230  	-4011,943665  	1682,177983  	-0,053709  	-0,050000  	0,291579  	0,147745  	-4,069543  	9690,980932  	12194,560464  	1,768671  	-0,047951  
261,554000  	18,351669  	39,553974  	26,565427  	1256,670793  	79,997682  	73,421741  	0,004510  	0,008350  	0,003960  	0,004078  	0,004357  	-0,000000  	-0,000000  	25,273915  	21,681605  	23,109814  	25,047780  	31,994695  	29,971870  	31,779867  	33,047758  	40,207998  	38,499905  	42,599222  	67,010740  	28,946906  	28,055816  	28,033046  	72,400775  	0,069784  	0,035360  	-3135,760618  	25486,457045  	-0,018513  	-0,050004  	0,308790  	0,156466  	-4,313302  	9356,924157  	11917,631445  	1,728506  	-0,047955  
262,556000  	18,355533  	39,546382  	26,566164  	657,183579  	79,996870  	73,426230  	0,004513  	0,008591  	0,003962  	0,004070  	0,004336  	0,000001  	-0,000000  	25,277462  	21,683830  	23,106102  	25,050496  	31,997174  	29,978486  	31,773271  	33,053750  	40,208274  	38,494497  	42,597667  	67,019096  	28,961436  	28,052695  	28,041627  	72,396234  	0,063327  	0,032088  	-2844,097391  	18383,538997  	-0,027528  	-0,049990  	0,292019  	0,147968  	-4,075751  	9875,403652  	11978,137954  	1,737282  	-0,047943  
263,555000  	18,372646  	39,554529  	26,565796  	-242,047242  	79,997464  	73,435584  	0,004523  	0,008136  	0,003963  	0,004103  	0,004363  	-0,000000  	-0,000000  	25,272310  	21,675201  	23,098033  	25,044831  	31,997018  	29,969473  	31,781435  	33,054794  	40,203007  	38,493594  	42,597257  	67,023430  	28,942665  	28,046078  	28,037826  	72,406410  	0,090150  	0,045679  	-4046,981933  	-27108,391277  	-0,102376  	-0,050002  	0,313823  	0,159017  	-4,374248  	8894,096620  	12189,215216  	1,767896  	-0,047953  
264,557000  	18,399817  	39,558541  	26,566656  	956,927186  	79,995777  	73,437642  	0,004519  	0,008663  	0,003963  	0,004125  	0,004394  	-0,000000  	-0,000000  	25,273312  	21,683239  	23,120900  	25,059318  	32,005837  	29,981032  	31,781808  	33,049595  	40,213725  	38,498716  	42,604537  	67,015419  	28,955256  	28,029848  	28,042240  	72,411958  	0,108132  	0,054791  	-4848,938516  	22427,856522  	-0,022139  	-0,050003  	0,338057  	0,171296  	-4,709346  	10031,719536  	12106,402714  	1,755885  	-0,047954  
265,555000  	18,427019  	39,549623  	26,565949  	-242,047242  	79,994902  	73,429535  	0,004510  	0,008433  	0,003963  	0,004041  	0,004349  	-0,000000  	-0,000000  	25,265138  	21,684783  	23,110414  	25,040520  	31,997308  	29,970910  	31,783254  	33,051650  	40,198519  	38,501800  	42,604327  	67,015724  	28,946909  	28,003691  	28,038578  	72,399749  	0,039978  	0,020257  	-1789,672454  	-27107,763192  	-0,102374  	-0,050001  	0,302364  	0,153210  	-4,216761  	9535,588265  	11909,885426  	1,727383  	-0,047952  
266,554000  	18,427448  	39,541784  	26,566380  	-242,047242  	79,996651  	73,423798  	0,004518  	0,008418  	0,003966  	0,004058  	0,004364  	-0,000001  	-0,000000  	25,269092  	21,684123  	23,099221  	25,048646  	31,996655  	29,981531  	31,784653  	33,052280  	40,201437  	38,499438  	42,603200  	67,009918  	28,954519  	27,988270  	28,037583  	72,412350  	0,053230  	0,026972  	-2381,944034  	-27111,742178  	-0,102389  	-0,050009  	0,314417  	0,159318  	-4,389849  	9502,203881  	12082,282019  	1,752387  	-0,047959  
267,554000  	18,414200  	39,544284  	26,566656  	657,183579  	79,996683  	73,416315  	0,004521  	0,008556  	0,003961  	0,004098  	0,004368  	0,000001  	-0,000000  	25,284118  	21,686372  	23,117623  	25,057283  	31,999745  	29,984196  	31,786295  	33,057876  	40,209708  	38,497700  	42,607673  	67,023755  	28,961143  	27,992067  	28,047369  	72,419042  	0,085702  	0,043426  	-3837,892280  	18383,186911  	-0,027527  	-0,049989  	0,318045  	0,161156  	-4,445570  	9801,503828  	12155,378457  	1,762989  	-0,047942  
268,556000  	18,400890  	39,545024  	26,567025  	57,696365  	79,998432  	73,403220  	0,004507  	0,008461  	0,003960  	0,004117  	0,004304  	-0,000001  	-0,000000  	25,272002  	21,679658  	23,109895  	25,044199  	31,992631  	29,971636  	31,776508  	33,049835  	40,195388  	38,486474  	42,602956  	67,003943  	28,955044  	27,976411  	28,035910  	72,409666  	0,101136  	0,051247  	-4532,098877  	1682,418715  	-0,053720  	-0,050012  	0,266927  	0,135254  	-3,739456  	9596,028926  	11841,053888  	1,717400  	-0,047961  
269,556000  	18,396535  	39,542432  	26,567056  	1256,670793  	80,000088  	73,415318  	0,004514  	0,008383  	0,003960  	0,004100  	0,004312  	0,000001  	-0,000000  	25,267771  	21,674820  	23,099580  	25,044936  	31,992255  	29,967406  	31,772807  	33,044240  	40,190929  	38,488824  	42,595022  	67,003827  	28,951560  	27,983321  	28,033564  	72,409800  	0,087390  	0,044281  	-3916,436477  	25476,843702  	-0,018506  	-0,049983  	0,273321  	0,138494  	-3,822982  	9426,621751  	11995,825992  	1,739847  	-0,047937  
270,556000  	18,404202  	39,546506  	26,567609  	657,183579  	80,000275  	73,431531  	0,004525  	0,008435  	0,003965  	0,004102  	0,004380  	-0,000000  	-0,000000  	25,271479  	21,682538  	23,107273  	25,047301  	31,997391  	29,971685  	31,772532  	33,038456  	40,195372  	38,494002  	42,598420  	67,007754  	28,950589  	27,977344  	28,030457  	72,425539  	0,089222  	0,045209  	-3997,849434  	18387,414756  	-0,027534  	-0,050002  	0,327524  	0,165959  	-4,569994  	9539,743096  	12230,515551  	1,773886  	-0,047953  
271,555000  	18,400062  	39,550024  	26,566964  	657,183579  	79,998463  	73,444096  	0,004517  	0,008602  	0,003963  	0,004084  	0,004326  	-0,000001  	-0,000000  	25,271610  	21,678367  	23,115199  	25,046053  	31,997745  	29,972009  	31,776018  	33,040184  	40,201564  	38,490774  	42,595176  	67,008315  	28,954805  	27,965279  	28,031613  	72,425831  	0,075069  	0,038038  	-3364,894582  	18389,087506  	-0,027536  	-0,050007  	0,284500  	0,144158  	-3,960983  	9899,360608  	12055,802919  	1,748546  	-0,047957  
272,556000  	18,399081  	39,546444  	26,567702  	1256,670793  	79,998401  	73,431811  	0,004509  	0,008308  	0,003961  	0,004050  	0,004369  	0,000002  	-0,000000  	25,269784  	21,677405  	23,115864  	25,051569  	31,996681  	29,977280  	31,781317  	33,045512  	40,205020  	38,490536  	42,591294  	67,008409  	28,954680  	27,965669  	28,031323  	72,428395  	0,046989  	0,023810  	-2105,985217  	25475,572455  	-0,018505  	-0,049981  	0,318363  	0,161317  	-4,440701  	9266,270593  	11895,629078  	1,725315  	-0,047935  
273,555000  	18,416163  	39,543605  	26,567302  	1256,670793  	79,998838  	73,436987  	0,004517  	0,008628  	0,003962  	0,004128  	0,004323  	0,000001  	-0,000000  	25,273856  	21,685451  	23,114274  	25,053663  	32,000677  	29,983134  	31,782568  	33,049669  	40,207376  	38,495091  	42,592472  	67,012392  	28,959751  	27,973938  	28,036343  	72,438444  	0,110250  	0,055864  	-4936,574032  	25477,505717  	-0,018506  	-0,049985  	0,282194  	0,142990  	-3,933369  	9956,932575  	12062,094353  	1,749459  	-0,047938  
274,558000  	18,429350  	39,554776  	26,567117  	1256,670793  	80,004962  	73,445156  	0,004523  	0,008479  	0,003963  	0,004106  	0,004370  	-0,000000  	-0,000000  	25,279071  	21,688684  	23,117388  	25,050018  	31,999806  	29,980723  	31,784011  	33,056160  	40,207275  	38,497286  	42,599495  	67,023622  	28,965097  	27,988342  	28,035511  	72,441072  	0,092658  	0,046950  	-4148,474068  	25485,696898  	-0,018512  	-0,050003  	0,318924  	0,161601  	-4,443948  	9634,317326  	12194,998251  	1,768735  	-0,047954  
275,556000  	18,430086  	39,556813  	26,567210  	1256,670793  	80,010835  	73,450830  	0,004511  	0,008418  	0,003964  	0,004049  	0,004359  	-0,000001  	-0,000000  	25,275732  	21,686740  	23,117225  	25,048499  	31,999461  	29,978270  	31,788511  	33,058288  	40,200365  	38,496269  	42,601401  	67,024383  	28,957394  	28,009107  	28,029154  	72,437285  	0,046290  	0,023456  	-2072,638510  	25490,913714  	-0,018516  	-0,050014  	0,310571  	0,157369  	-4,327692  	9503,475162  	11939,633812  	1,731697  	-0,047964  
276,555000  	18,426099  	39,553789  	26,566718  	1256,670793  	80,007149  	73,459311  	0,004513  	0,008518  	0,003963  	0,004170  	0,004357  	0,000000  	-0,000000  	25,273800  	21,689354  	23,114288  	25,051416  	32,005640  	29,980479  	31,793595  	33,052100  	40,197164  	38,490604  	42,596580  	67,013911  	28,952826  	28,033588  	28,029310  	72,435182  	0,144544  	0,073242  	-6472,237690  	25483,645798  	-0,018511  	-0,049998  	0,308835  	0,156489  	-4,295515  	9719,435831  	11981,061246  	1,737706  	-0,047950  
277,556000  	18,414598  	39,561627  	26,565796  	1256,670793  	79,997870  	73,455601  	0,004523  	0,008521  	0,003964  	0,004097  	0,004376  	-0,000001  	-0,000000  	25,274467  	21,690663  	23,115443  	25,050328  	32,000187  	29,979435  	31,790876  	33,049481  	40,198411  	38,489939  	42,596037  	67,009586  	28,945465  	28,051089  	28,024703  	72,429437  	0,085230  	0,043187  	-3819,834711  	25487,648817  	-0,018513  	-0,050007  	0,324044  	0,164195  	-4,503224  	9724,796858  	12197,540245  	1,769104  	-0,047957  
278,556000  	18,406257  	39,569466  	26,566718  	1256,670793  	79,997120  	73,446684  	0,004519  	0,008344  	0,003963  	0,004087  	0,004349  	-0,000000  	-0,000000  	25,265413  	21,681802  	23,109916  	25,042448  	31,991185  	29,974168  	31,781364  	33,052428  	40,192169  	38,496880  	42,590808  	67,006863  	28,932228  	28,058375  	28,021980  	72,418553  	0,077288  	0,039162  	-3466,524578  	25484,821513  	-0,018511  	-0,050001  	0,302941  	0,153503  	-4,215210  	9343,335531  	12101,798881  	1,755218  	-0,047952  
279,556000  	18,397701  	39,570669  	26,566718  	357,439972  	79,998588  	73,449396  	0,004510  	0,008528  	0,003962  	0,004070  	0,004330  	0,000000  	-0,000000  	25,268041  	21,684049  	23,110920  	25,048359  	31,997553  	29,977225  	31,784828  	33,052224  	40,194259  	38,490619  	42,592523  	67,009979  	28,947872  	28,073986  	28,023736  	72,424844  	0,063320  	0,032085  	-2841,340700  	12417,080208  	-0,036402  	-0,049998  	0,287359  	0,145607  	-3,997634  	9739,404206  	11907,357554  	1,727016  	-0,047949  
280,555000  	18,388685  	39,569682  	26,565919  	956,927186  	79,998776  	73,449770  	0,004514  	0,008318  	0,003964  	0,004137  	0,004352  	-0,000001  	-0,000000  	25,280098  	21,687151  	23,116119  	25,048567  	32,002104  	29,983278  	31,783336  	33,053584  	40,200522  	38,497548  	42,598933  	67,010768  	28,941401  	28,082799  	28,027582  	72,427244  	0,117719  	0,059649  	-5284,395210  	22430,131883  	-0,022142  	-0,050009  	0,304756  	0,154422  	-4,239535  	9286,328106  	12011,063832  	1,742058  	-0,047959  
281,555000  	18,387673  	39,581007  	26,564259  	57,696365  	80,001463  	73,449521  	0,004523  	0,008591  	0,003963  	0,004134  	0,004336  	-0,000001  	-0,000000  	25,276443  	21,685991  	23,117377  	25,049288  	32,000089  	29,975167  	31,790034  	33,056488  	40,200160  	38,503580  	42,599529  	67,004906  	28,928189  	28,089200  	28,024249  	72,424574  	0,115367  	0,058457  	-5181,817141  	1682,445804  	-0,053716  	-0,050007  	0,292682  	0,148304  	-4,073394  	9876,205188  	12202,504194  	1,769824  	-0,047958  
282,557000  	18,387673  	39,583415  	26,565058  	1256,670793  	80,002650  	73,445405  	0,004510  	0,008490  	0,003967  	0,004060  	0,004304  	0,000000  	-0,000000  	25,274158  	21,685180  	23,116372  	25,055776  	32,005251  	29,995115  	31,794841  	33,055639  	40,199534  	38,495993  	42,599762  	67,008182  	28,930925  	28,103161  	28,027098  	72,433969  	0,055586  	0,028166  	-2497,008014  	25482,549924  	-0,018510  	-0,049996  	0,267304  	0,135445  	-3,723214  	9658,490761  	11905,888847  	1,726803  	-0,047948  
283,555000  	18,394665  	39,580082  	26,564689  	1256,670793  	80,001181  	73,447993  	0,004512  	0,008495  	0,003963  	0,004017  	0,004357  	0,000000  	-0,000000  	25,285449  	21,686097  	23,115515  	25,060455  	32,000111  	29,984950  	31,784226  	33,053306  	40,202430  	38,500697  	42,594298  	67,011417  	28,926716  	28,102454  	28,019766  	72,433576  	0,020215  	0,010243  	-907,632183  	25484,185472  	-0,018511  	-0,049999  	0,309221  	0,156685  	-4,304402  	9668,892341  	11955,987304  	1,734069  	-0,047951  
284,558000  	18,404110  	39,578786  	26,564873  	1256,670793  	79,999494  	73,446684  	0,004519  	0,008362  	0,003961  	0,004126  	0,004310  	0,000001  	-0,000000  	25,280561  	21,690651  	23,113057  	25,051691  	32,003576  	29,973014  	31,784429  	33,049168  	40,205886  	38,491586  	42,592287  	67,010526  	28,915801  	28,095909  	28,023469  	72,425221  	0,108710  	0,055084  	-4878,511970  	25481,368977  	-0,018509  	-0,049993  	0,272164  	0,137907  	-3,788335  	9381,316900  	12119,402186  	1,757771  	-0,047946  
285,556000  	18,415304  	39,581563  	26,564382  	1256,670793  	80,007617  	73,450082  	0,004523  	0,008448  	0,003963  	0,004136  	0,004368  	-0,000001  	-0,000000  	25,282593  	21,695428  	23,120868  	25,059710  	32,003459  	29,991189  	31,786787  	33,065340  	40,207844  	38,503514  	42,600063  	67,017052  	28,921358  	28,101792  	28,021027  	72,429370  	0,117154  	0,059363  	-5255,355707  	25490,478984  	-0,018515  	-0,050013  	0,318098  	0,161183  	-4,430911  	9566,660007  	12199,651512  	1,769410  	-0,047963  
286,556000  	18,418432  	39,577921  	26,563951  	657,183579  	80,010867  	73,444283  	0,004510  	0,008294  	0,003963  	0,004136  	0,004324  	-0,000001  	-0,000000  	25,292959  	21,689837  	23,113890  	25,063151  	32,015236  	29,998865  	31,800170  	33,063700  	40,209053  	38,507567  	42,602715  	67,016874  	28,919190  	28,127662  	28,034976  	72,421673  	0,116435  	0,058998  	-5221,433739  	18390,677560  	-0,027539  	-0,050012  	0,282554  	0,143172  	-3,941221  	9234,608841  	11922,327072  	1,729187  	-0,047961  
287,557000  	18,413188  	39,567089  	26,563582  	657,183579  	79,998245  	73,432965  	0,004512  	0,008604  	0,003963  	0,004011  	0,004356  	-0,000000  	-0,000000  	25,278569  	21,693445  	23,109078  	25,059039  	31,999007  	29,978799  	31,787701  	33,055728  	40,202043  	38,495535  	42,592507  	67,015983  	28,897592  	28,121917  	28,020030  	72,418098  	0,015702  	0,007956  	-703,960472  	18388,448651  	-0,027535  	-0,050005  	0,308196  	0,156165  	-4,298036  	9904,525672  	11967,440397  	1,735730  	-0,047955  
288,555000  	18,384115  	39,569558  	26,562537  	57,696365  	79,990872  	73,429411  	0,004523  	0,008296  	0,003962  	0,004172  	0,004326  	-0,000000  	-0,000000  	25,283579  	21,692254  	23,115382  	25,055590  	32,000640  	29,985110  	31,787181  	33,058458  	40,207375  	38,498470  	42,592352  	67,013250  	28,903833  	28,123968  	28,013470  	72,418374  	0,146347  	0,074155  	-6570,868000  	1682,343758  	-0,053710  	-0,050001  	0,284757  	0,144288  	-3,968841  	9239,293550  	12184,547833  	1,767219  	-0,047952  
289,555000  	18,342347  	39,573292  	26,562076  	57,696365  	79,990278  	73,424734  	0,004514  	0,008615  	0,003963  	0,004120  	0,004312  	0,000001  	-0,000000  	25,285902  	21,707307  	23,124160  	25,070100  	32,011893  	30,000994  	31,795585  	33,059005  	40,211794  	38,502376  	42,605416  	67,018410  	28,905065  	28,138779  	28,027712  	72,425714  	0,103925  	0,052660  	-4676,204984  	1681,786506  	-0,053691  	-0,049981  	0,273627  	0,138649  	-3,816097  	9928,078677  	11996,722751  	1,739978  	-0,047935  
290,558000  	18,329344  	39,575514  	26,561154  	1256,670793  	79,990715  	73,428662  	0,004509  	0,008524  	0,003964  	0,004068  	0,004311  	-0,000000  	-0,000000  	25,287998  	21,696492  	23,115555  	25,057783  	32,010453  	29,984256  	31,790958  	33,051597  	40,202159  	38,501310  	42,590528  	67,013305  	28,896407  	28,118358  	28,018605  	72,413112  	0,061692  	0,031260  	-2777,908774  	25486,748365  	-0,018513  	-0,050005  	0,272489  	0,138072  	-3,798208  	9731,206320  	11903,798763  	1,726500  	-0,047955  
291,556000  	18,319500  	39,567552  	26,560785  	357,439972  	79,991309  	73,431905  	0,004520  	0,008523  	0,003962  	0,004176  	0,004314  	-0,000001  	-0,000000  	25,286266  	21,694394  	23,123052  	25,055967  	32,014011  	29,981347  	31,787669  	33,056772  	40,208856  	38,498861  	42,593399  	67,016971  	28,899369  	28,106226  	28,012268  	72,405765  	0,149593  	0,075800  	-6736,515991  	12419,740028  	-0,036409  	-0,050008  	0,274821  	0,139254  	-3,829159  	9729,030215  	12138,248244  	1,760504  	-0,047958  
292,557000  	18,304719  	39,566688  	26,559248  	-242,047242  	79,990184  	73,450176  	0,004522  	0,008230  	0,003963  	0,004039  	0,004375  	0,000000  	-0,000000  	25,285677  	21,695209  	23,113899  	25,057901  	32,008783  	29,985462  	31,788074  	33,060230  	40,209381  	38,505071  	42,590029  	67,017838  	28,896876  	28,106159  	28,014299  	72,410821  	0,038312  	0,019413  	-1726,413086  	-27104,983120  	-0,102366  	-0,049995  	0,323077  	0,163705  	-4,488226  	9097,156301  	12173,589016  	1,765630  	-0,047947  
293,555000  	18,313765  	39,569836  	26,559586  	1256,670793  	79,995995  	73,442038  	0,004511  	0,008193  	0,003962  	0,004121  	0,004271  	-0,000001  	-0,000000  	25,289965  	21,693460  	23,116647  	25,056465  	32,013571  	29,989613  	31,790346  	33,057852  	40,205163  	38,502587  	42,594923  	67,012679  	28,902456  	28,107743  	28,017079  	72,408208  	0,104317  	0,052858  	-4699,429046  	25491,048514  	-0,018516  	-0,050014  	0,240722  	0,121976  	-3,351278  	9016,928371  	11930,574429  	1,730384  	-0,047963  
294,558000  	18,319592  	39,567305  	26,558725  	1256,670793  	79,999619  	73,416970  	0,004515  	0,008502  	0,003962  	0,004112  	0,004342  	0,000000  	-0,000000  	25,290397  	21,697724  	23,125570  	25,063878  	32,014446  	29,991475  	31,795011  	33,064715  	40,216075  	38,508869  	42,596255  	67,007758  	28,908217  	28,104566  	28,026763  	72,413280  	0,097362  	0,049334  	-4384,351701  	25482,508496  	-0,018510  	-0,049995  	0,296994  	0,150489  	-4,152763  	9684,785826  	12014,333118  	1,742532  	-0,047947  
295,554000  	18,318856  	39,570361  	26,558541  	1256,670793  	79,999744  	73,401131  	0,004524  	0,008573  	0,003966  	0,004054  	0,004348  	0,000000  	-0,000000  	25,289960  	21,696721  	23,120258  	25,062035  	32,013294  	29,990342  	31,792294  	33,061421  	40,213903  	38,508470  	42,593471  	67,007905  	28,899258  	28,096520  	28,013914  	72,408970  	0,050516  	0,025597  	-2275,233334  	25483,865618  	-0,018511  	-0,049998  	0,301647  	0,152847  	-4,228042  	9836,552832  	12212,869879  	1,771327  	-0,047950  
296,555000  	18,309963  	39,575792  	26,557680  	1256,670793  	79,996745  	73,410423  	0,004513  	0,008541  	0,003963  	0,004073  	0,004345  	0,000000  	-0,000000  	25,295279  	21,696431  	23,119162  	25,063746  	32,015946  	29,995711  	31,793987  	33,061287  	40,211005  	38,506078  	42,593193  	67,015514  	28,907654  	28,089909  	28,018490  	72,414281  	0,065751  	0,033317  	-2963,400885  	25482,902500  	-0,018510  	-0,049996  	0,299630  	0,151825  	-4,191955  	9769,280364  	11971,387548  	1,736303  	-0,047948  
297,556000  	18,286227  	39,564189  	26,556512  	1256,670793  	79,991840  	73,422302  	0,004508  	0,008536  	0,003965  	0,004055  	0,004360  	-0,000000  	-0,000000  	25,294049  	21,697223  	23,126998  	25,062905  	32,019482  	29,985533  	31,787731  	33,065699  	40,215224  	38,507188  	42,594759  	67,017220  	28,908881  	28,083768  	28,023693  	72,413381  	0,050998  	0,025841  	-2299,782386  	25487,454732  	-0,018513  	-0,050006  	0,311604  	0,157892  	-4,348370  	9756,835679  	11880,242956  	1,723084  	-0,047956  
298,555000  	18,279787  	39,553449  	26,556881  	657,183579  	79,994964  	73,431032  	0,004521  	0,008385  	0,003962  	0,004095  	0,004331  	0,000001  	-0,000000  	25,286886  	21,703362  	23,126260  	25,061706  	32,015432  	29,981670  	31,792108  	33,063576  	40,216481  	38,511398  	42,593381  	67,012205  	28,900169  	28,083512  	28,017880  	72,412434  	0,083574  	0,042347  	-3768,070871  	18383,872100  	-0,027528  	-0,049990  	0,288406  	0,146138  	-4,021223  	9430,843082  	12148,748090  	1,762027  	-0,047943  
299,553000  	18,279971  	39,547894  	26,557157  	657,183579  	80,008836  	73,434524  	0,004521  	0,008442  	0,003962  	0,004078  	0,004358  	0,000001  	-0,000000  	25,289193  	21,708407  	23,129378  	25,073224  	32,018699  	29,988339  	31,804164  	33,069513  	40,217403  	38,516995  	42,595872  	67,016276  	28,905430  	28,081786  	28,019816  	72,419195  	0,070162  	0,035551  	-3162,515526  	18383,040357  	-0,027527  	-0,049987  	0,309483  	0,156817  	-4,321924  	9554,334880  	12158,887820  	1,763498  	-0,047941  
300,555000  	18,291808  	39,543821  	26,557465  	1256,670793  	80,019021  	73,436582  	0,004506  	0,008427  	0,003962  	0,004112  	0,004369  	-0,000001  	-0,000000  	25,290613  	21,701836  	23,133042  	25,072342  	32,020023  	29,990193  	31,798095  	33,069188  	40,212386  	38,514704  	42,595130  	67,015436  	28,909423  	28,068891  	28,022597  	72,418035  	0,097240  	0,049272  	-4379,769655  	25489,019522  	-0,018514  	-0,050009  	0,318284  	0,161277  	-4,450319  	9522,968133  	11837,869335  	1,716938  	-0,047959  
301,561000  	18,317905  	39,534779  	26,557311  	1256,670793  	80,015490  	73,437236  	0,004513  	0,008456  	0,003963  	0,004081  	0,004366  	-0,000000  	-0,000000  	25,285727  	21,701117  	23,130551  	25,066682  	32,015481  	29,992142  	31,795237  	33,065026  	40,211444  	38,510043  	42,592583  	67,015333  	28,908029  	28,064084  	28,021699  	72,414789  	0,072187  	0,036578  	-3245,993722  	25486,415498  	-0,018512  	-0,050004  	0,316126  	0,160183  	-4,417334  	9584,087943  	11981,880333  	1,737825  	-0,047955  
302,553000  	18,324223  	39,538544  	26,557618  	1256,670793  	80,001431  	73,434992  	0,004523  	0,008385  	0,003964  	0,004138  	0,004386  	0,000001  	-0,000000  	25,287558  	21,708432  	23,128138  	25,068978  	32,012318  	29,996243  	31,798377  	33,063075  	40,214163  	38,506353  	42,592051  	67,019340  	28,912436  	28,069248  	28,018234  	72,416663  	0,118066  	0,059825  	-5308,341315  	25480,480248  	-0,018508  	-0,049991  	0,332086  	0,168270  	-4,632019  	9431,604294  	12204,043512  	1,770047  	-0,047943  
303,554000  	18,320083  	39,542062  	26,558080  	1256,670793  	79,990965  	73,435615  	0,004517  	0,008616  	0,003964  	0,004091  	0,004339  	0,000002  	-0,000000  	25,293335  	21,703096  	23,127697  	25,062781  	32,009571  	29,998248  	31,791276  	33,054260  	40,214820  	38,502611  	42,589625  	67,014716  	28,917204  	28,076339  	28,017708  	72,418219  	0,080002  	0,040538  	-3598,266337  	25472,711121  	-0,018502  	-0,049974  	0,294932  	0,149444  	-4,106842  	9929,079713  	12064,756385  	1,749845  	-0,047929  
304,558000  	18,307939  	39,538420  	26,557465  	1256,670793  	79,985904  	73,433121  	0,004508  	0,008474  	0,003962  	0,004095  	0,004388  	0,000000  	-0,000000  	25,295454  	21,700780  	23,134921  	25,067188  	32,014023  	29,994774  	31,798222  	33,063102  	40,228408  	38,508785  	42,597140  	67,020483  	28,921579  	28,096981  	28,031433  	72,418898  	0,083407  	0,042263  	-3752,905388  	25483,180067  	-0,018510  	-0,049997  	0,333221  	0,168845  	-4,638181  	9623,666724  	11862,992705  	1,720582  	-0,047948  
305,557000  	18,294599  	39,537680  	26,558910  	1256,670793  	79,982530  	73,436176  	0,004519  	0,008495  	0,003960  	0,004124  	0,004323  	-0,000001  	-0,000000  	25,294439  	21,705360  	23,132738  	25,066236  	32,008146  	29,985646  	31,797745  	33,063750  	40,221402  	38,507936  	42,598441  	67,017637  	28,915891  	28,101492  	28,028768  	72,408777  	0,107199  	0,054318  	-4826,298212  	25487,991120  	-0,018514  	-0,050007  	0,282274  	0,143030  	-3,925180  	9669,312564  	12103,055755  	1,755400  	-0,047958  
306,556000  	18,305700  	39,539902  	26,558725  	1256,670793  	79,986154  	73,437424  	0,004527  	0,008385  	0,003965  	0,004110  	0,004378  	-0,000001  	-0,000000  	25,293767  	21,694525  	23,128731  	25,060465  	32,013520  	29,988117  	31,790531  	33,057472  	40,219368  	38,506172  	42,589802  	67,018250  	28,918340  	28,090861  	28,021393  	72,416263  	0,095894  	0,048590  	-4315,522608  	25488,932073  	-0,018514  	-0,050009  	0,325598  	0,164983  	-4,529274  	9432,068378  	12276,123152  	1,780501  	-0,047959  
