06/29/2020 13:49:40
Tempo T_f_e T_f_s AR AR T_q_e T_q_s Corrente_P_f Corrente_P_q Corrente_P_RESERVA Corrente_eletromag_f Corrente_eletromag_q AR AR T_1 T_2 T_3 T_4 T_5 T_6 T_7 T_8 T_9 T_10 T_11 T_12 T_13 T_14 T_15 T_16 Velocidade_f_(m/s) Vazao_f_(L/s) q_f_(W) AR AR AR Velocidade_q_(m/s) Vazao_q_(L/s) q_q_(W) DeltaP_q_(Pa) DeltaP_f_(Pa) DeltaP_f_(Psi) AR
0,009000  	12,301895  	48,298606  	-242,047242  	1256,670793  	80,310588  	74,527369  	0,004132  	0,008227  	0,003962  	0,004061  	0,004356  	-0,000000  	-0,000000  	22,425327  	17,929004  	19,736030  	24,612396  	35,652965  	33,015574  	35,044846  	38,087955  	48,719455  	46,245302  	50,326798  	68,973511  	23,693570  	21,504531  	21,787935  	73,163150  	0,056330  	0,028543  	-4300,360170  	35510,957237  	-0,021698  	-0,050003  	0,308076  	0,156104  	-3,785245  	9091,050333  	3769,885299  	0,546776  	-0,047954  
2,569000  	12,299018  	48,297059  	357,499067  	657,183579  	80,307089  	74,537599  	0,004134  	0,008200  	0,003963  	0,003994  	0,004370  	0,000000  	-0,000000  	22,428676  	17,928356  	19,730221  	24,619016  	35,660613  	33,010100  	35,047278  	38,099086  	48,718780  	46,247668  	50,332970  	68,972542  	23,688359  	21,507306  	21,789599  	73,170774  	0,001505  	0,000763  	-114,899593  	7100,146438  	-0,021696  	-0,050000  	0,319258  	0,161770  	-3,913328  	9033,010744  	3822,236245  	0,554368  	-0,047951  
3,572000  	12,299293  	48,296317  	1256,818530  	657,183579  	80,307620  	74,525653  	0,004136  	0,008238  	0,003965  	0,004014  	0,004386  	0,000000  	-0,000001  	22,430302  	17,927686  	19,737854  	24,615882  	35,656297  	33,005447  	35,045485  	38,096602  	48,717908  	46,241924  	50,332737  	68,970573  	23,691039  	21,505641  	21,794273  	73,170399  	0,017866  	0,009053  	-1363,935024  	-9725,605146  	-0,013764  	-0,049996  	0,331872  	0,168162  	-4,076737  	9115,706953  	3847,289004  	0,558002  	-0,047948  
4,571000  	12,303089  	48,294027  	1256,818530  	1256,670793  	80,303808  	74,523969  	0,004138  	0,008242  	0,003963  	0,004057  	0,004359  	-0,000001  	-0,000000  	22,431395  	17,931252  	19,745410  	24,620397  	35,667890  	33,012664  	35,051500  	38,113328  	48,736857  	46,264257  	50,346244  	68,974196  	23,710442  	21,506961  	21,800829  	73,178263  	0,052745  	0,026726  	-4025,983206  	-1,993809  	-0,011070  	-0,050007  	0,310837  	0,157503  	-3,816927  	9123,922526  	3909,772619  	0,567065  	-0,047957  
5,573000  	12,307161  	48,298328  	-242,047242  	57,696365  	80,301027  	74,517669  	0,004138  	0,008229  	0,003962  	0,004071  	0,004317  	-0,000000  	-0,000000  	22,427534  	17,931052  	19,752379  	24,628998  	35,667989  	33,020324  	35,058378  	38,119469  	48,730721  	46,266609  	50,345218  	68,970733  	23,712052  	21,503632  	21,803968  	73,173674  	0,064165  	0,032513  	-4897,728734  	27699,449615  	-0,093568  	-0,050000  	0,277498  	0,140610  	-3,409617  	9096,238743  	3896,144708  	0,565088  	-0,047952  
6,573000  	12,309548  	48,298018  	-242,047242  	1256,670793  	80,299090  	74,511493  	0,004142  	0,008216  	0,003962  	0,004013  	0,004355  	0,000000  	-0,000000  	22,429600  	17,930787  	19,745230  	24,635170  	35,663356  	33,018340  	35,060858  	38,119878  	48,725307  	46,265240  	50,338812  	68,971864  	23,719352  	21,502875  	21,797290  	73,170006  	0,017397  	0,008815  	-1327,818980  	35505,969845  	-0,021695  	-0,049995  	0,307534  	0,155830  	-3,781441  	9068,114222  	3984,867346  	0,577956  	-0,047947  
7,571000  	12,306701  	48,291614  	-242,047242  	1256,670793  	80,296434  	74,509996  	0,004134  	0,008227  	0,003964  	0,004005  	0,004331  	0,000001  	-0,000000  	22,432942  	17,927579  	19,735149  	24,625907  	35,664967  	33,011266  	35,053724  	38,116600  	48,740426  	46,265542  	50,347882  	68,969347  	23,717966  	21,498885  	21,794708  	73,166542  	0,010346  	0,005242  	-789,551259  	35504,851712  	-0,021694  	-0,049993  	0,288198  	0,146032  	-3,542967  	9090,862152  	3823,577852  	0,554563  	-0,047946  
8,572000  	12,303395  	48,287777  	-242,047242  	1256,670793  	80,294810  	74,521287  	0,004135  	0,008201  	0,003963  	0,004090  	0,004339  	0,000001  	-0,000000  	22,429126  	17,921911  	19,734320  	24,618493  	35,662562  	33,009795  	35,046773  	38,110700  	48,734469  	46,258922  	50,342338  	68,971207  	23,714176  	21,496198  	21,788857  	73,162332  	0,079793  	0,040431  	-6089,426774  	35504,872514  	-0,021694  	-0,049994  	0,294699  	0,149326  	-3,614809  	9034,621599  	3831,966431  	0,555780  	-0,047946  
9,571000  	12,299722  	48,290531  	957,045375  	1256,670793  	80,290310  	74,513271  	0,004139  	0,008218  	0,003962  	0,004017  	0,004403  	0,000001  	-0,000000  	22,425524  	17,928395  	19,737698  	24,624773  	35,661332  	33,015376  	35,049739  	38,120456  	48,739280  	46,265543  	50,347278  	68,975142  	23,729697  	21,500469  	21,797485  	73,167232  	0,020335  	0,010304  	-1552,152465  	4415,353275  	-0,012267  	-0,049982  	0,345683  	0,175160  	-4,242757  	9071,528357  	3918,916734  	0,568391  	-0,047936  
10,571000  	12,298620  	48,296286  	357,499067  	1256,670793  	80,289998  	74,516889  	0,004139  	0,008228  	0,003964  	0,004037  	0,004348  	0,000000  	-0,000001  	22,431455  	17,930634  	19,736349  	24,620107  	35,657445  	33,016560  	35,056038  	38,122483  	48,747361  	46,262560  	50,349558  	68,974251  	23,734321  	21,494218  	21,795380  	73,167488  	0,036537  	0,018514  	-2789,380332  	16230,458889  	-0,015675  	-0,049998  	0,301850  	0,152950  	-3,702257  	9092,864932  	3918,401275  	0,568316  	-0,047950  
11,570000  	12,294487  	48,302041  	1256,818530  	357,439972  	80,291841  	74,507751  	0,004141  	0,008223  	0,003964  	0,004045  	0,004322  	0,000000  	-0,000000  	22,429931  	17,928799  	19,729454  	24,617893  	35,659912  	33,014502  	35,053463  	38,119722  	48,748284  	46,268073  	50,344258  	68,971760  	23,735271  	21,489533  	21,786727  	73,160594  	0,043135  	0,021857  	-3294,012303  	-16232,910482  	-0,015674  	-0,049995  	0,281239  	0,142506  	-3,456014  	9081,544379  	3973,802613  	0,576351  	-0,047948  
12,574000  	12,293079  	48,307053  	57,725912  	-242,047242  	80,289092  	74,504133  	0,004144  	0,008199  	0,003962  	0,004028  	0,004344  	0,000001  	-0,000000  	22,430756  	17,927139  	19,737016  	24,622413  	35,671347  	33,020538  	35,060310  	38,129017  	48,747740  	46,276037  	50,342827  	68,971021  	23,742489  	21,498246  	21,790997  	73,161968  	0,029223  	0,014807  	-2232,004657  	-27692,039870  	-0,093534  	-0,049984  	0,298775  	0,151392  	-3,672056  	9029,718290  	4020,765944  	0,583163  	-0,047938  
13,571000  	12,291732  	48,305784  	1256,818530  	1256,670793  	80,288279  	74,513801  	0,004136  	0,008212  	0,003961  	0,004069  	0,004340  	0,000000  	-0,000000  	22,431924  	17,933074  	19,743341  	24,627973  	35,679151  	33,025376  	35,062306  	38,129357  	48,748141  	46,275316  	50,345447  	68,969976  	23,746777  	21,505690  	21,793572  	73,165345  	0,062202  	0,031518  	-4750,914341  	-1,993373  	-0,011067  	-0,049995  	0,295191  	0,149576  	-3,621445  	9059,076597  	3855,190367  	0,559148  	-0,047947  
14,576000  	12,292895  	48,298173  	657,272221  	1256,670793  	80,287404  	74,511868  	0,004133  	0,008203  	0,003962  	0,004071  	0,004331  	0,000002  	-0,000000  	22,425595  	17,928503  	19,736441  	24,627858  	35,672899  	33,019329  	35,055064  	38,123229  	48,744451  	46,271620  	50,337983  	68,970414  	23,744015  	21,501700  	21,791360  	73,167286  	0,064553  	0,032709  	-4929,236889  	9719,032690  	-0,013761  	-0,049980  	0,288505  	0,146188  	-3,540061  	9038,402899  	3792,607897  	0,550071  	-0,047934  
15,570000  	12,288946  	48,289726  	-242,047242  	1256,670793  	80,288810  	74,495088  	0,004139  	0,008234  	0,003962  	0,004003  	0,004322  	0,000000  	-0,000000  	22,422761  	17,924154  	19,734202  	24,627900  	35,671424  	33,020533  	35,059300  	38,128419  	48,744961  	46,272358  	50,338835  	68,971878  	23,749681  	21,501279  	21,794473  	73,170092  	0,008927  	0,004523  	-681,560828  	35508,008487  	-0,021696  	-0,049998  	0,281323  	0,142548  	-3,462795  	9105,796340  	3918,944979  	0,568395  	-0,047950  
16,569000  	12,286987  	48,282053  	-242,047242  	1256,670793  	80,289498  	74,478807  	0,004140  	0,008224  	0,003965  	0,004041  	0,004396  	0,000001  	-0,000001  	22,426794  	17,935721  	19,737785  	24,628495  	35,674882  	33,026962  	35,067453  	38,134020  	48,747731  	46,280056  	50,350689  	68,973215  	23,767022  	21,509825  	21,798594  	73,170820  	0,040226  	0,020383  	-3070,811469  	35501,923764  	-0,021692  	-0,049989  	0,340040  	0,172301  	-4,197789  	9085,515982  	3933,900374  	0,570564  	-0,047942  
17,570000  	12,287355  	48,279392  	1256,818530  	57,696365  	80,285499  	74,483267  	0,004140  	0,008214  	0,003961  	0,004063  	0,004325  	0,000001  	-0,000000  	22,430032  	17,936521  	19,740240  	24,626205  	35,667600  	33,027476  	35,066650  	38,130883  	48,749311  	46,285061  	50,349106  	68,975056  	23,776735  	21,511533  	21,800441  	73,173600  	0,057842  	0,029309  	-4415,201889  	-24486,694581  	-0,018195  	-0,049985  	0,283446  	0,143624  	-3,494050  	9063,678534  	3950,091461  	0,572912  	-0,047938  
18,570000  	12,288518  	48,279392  	657,272221  	1256,670793  	80,285436  	74,493622  	0,004140  	0,008219  	0,003962  	0,004072  	0,004338  	0,000000  	-0,000000  	22,426496  	17,931264  	19,744672  	24,630471  	35,669776  	33,030422  	35,064472  	38,127367  	48,757318  	46,281786  	50,349114  	68,972701  	23,775635  	21,504138  	21,796674  	73,172248  	0,065024  	0,032948  	-4963,222670  	9721,834332  	-0,013765  	-0,049996  	0,293619  	0,148779  	-3,612958  	9074,481237  	3940,022342  	0,571452  	-0,047948  
19,574000  	12,292099  	48,271873  	-242,047242  	357,439972  	80,285249  	74,490378  	0,004140  	0,008217  	0,003963  	0,004039  	0,004346  	0,000001  	-0,000000  	22,417677  	17,929234  	19,740450  	24,623617  	35,672465  	33,020902  	35,060719  	38,126615  	48,747699  	46,278286  	50,344663  	68,969556  	23,773102  	21,496732  	21,785467  	73,162544  	0,038098  	0,019305  	-2907,139739  	30937,993855  	-0,051174  	-0,049992  	0,299987  	0,152006  	-3,693260  	9068,544349  	3949,244130  	0,572789  	-0,047944  
20,571000  	12,294304  	48,257702  	-242,047242  	956,927186  	80,283499  	74,477840  	0,004140  	0,008232  	0,003962  	0,004037  	0,004387  	0,000001  	-0,000001  	22,421605  	17,927886  	19,730480  	24,617068  	35,667902  	33,022318  	35,050014  	38,116429  	48,742697  	46,276588  	50,338239  	68,969147  	23,776116  	21,491366  	21,779493  	73,167344  	0,036244  	0,018365  	-2764,375907  	34189,448926  	-0,026850  	-0,049994  	0,332892  	0,168679  	-4,105985  	9102,597976  	3943,729416  	0,571990  	-0,047946  
21,577000  	12,294273  	48,232702  	957,045375  	-242,047242  	80,294966  	74,478870  	0,004141  	0,008231  	0,003962  	0,004006  	0,004355  	-0,000000  	-0,000000  	22,427251  	17,924994  	19,737772  	24,621930  	35,666877  	33,016518  	35,050037  	38,123846  	48,745640  	46,277283  	50,339406  	68,966096  	23,775796  	21,481873  	21,786703  	73,175787  	0,011114  	0,005631  	-847,074056  	-34195,619506  	-0,026852  	-0,050003  	0,307129  	0,155624  	-3,795028  	9099,135028  	3966,826252  	0,575340  	-0,047954  
22,572000  	12,292130  	48,219584  	357,499067  	357,439972  	80,302152  	74,477872  	0,004144  	0,008218  	0,003963  	0,004053  	0,004315  	0,000001  	-0,000000  	22,421387  	17,924492  	19,741290  	24,629531  	35,665923  	33,021590  	35,056416  	38,124498  	48,740540  	46,271124  	50,338197  	68,969481  	23,773265  	21,485964  	21,795309  	73,174803  	0,049841  	0,025255  	-3797,607590  	-1,684842  	-0,026846  	-0,049987  	0,275788  	0,139744  	-3,412555  	9071,109549  	4034,266755  	0,585121  	-0,047940  
23,569000  	12,288457  	48,210487  	1256,818530  	1256,670793  	80,299902  	74,480679  	0,004144  	0,008221  	0,003963  	0,004010  	0,004329  	0,000000  	-0,000000  	22,416849  	17,931355  	19,732056  	24,618259  	35,673319  	33,017372  	35,059471  	38,123866  	48,740727  	46,273973  	50,328888  	68,966423  	23,784991  	21,487691  	21,784072  	73,178540  	0,015055  	0,007629  	-1146,953081  	-1,993450  	-0,011068  	-0,049997  	0,286579  	0,145212  	-3,543014  	9078,944515  	4023,745726  	0,583595  	-0,047949  
24,575000  	12,284845  	48,203557  	57,725912  	1256,670793  	80,295216  	74,489911  	0,004136  	0,008231  	0,003963  	0,004058  	0,004384  	0,000001  	-0,000000  	22,423190  	17,934675  	19,743101  	24,626267  	35,672822  	33,021911  	35,053107  	38,129295  	48,743597  	46,281519  	50,337363  	68,982336  	23,793665  	21,488404  	21,787672  	73,191044  	0,054009  	0,027367  	-4114,208199  	24485,678945  	-0,018197  	-0,049988  	0,330659  	0,167547  	-4,078201  	9099,772437  	3848,842444  	0,558227  	-0,047941  
25,572000  	12,284355  	48,194770  	1256,818530  	956,927186  	80,288810  	74,487914  	0,004139  	0,008224  	0,003963  	0,004037  	0,004344  	0,000000  	-0,000000  	22,427843  	17,928039  	19,737528  	24,614524  	35,665923  	33,015987  	35,053611  	38,123259  	48,736945  	46,279878  	50,328809  	68,983440  	23,792624  	21,486741  	21,797630  	73,182257  	0,036697  	0,018594  	-2794,785211  	-4420,416382  	-0,012270  	-0,049997  	0,298645  	0,151326  	-3,680565  	9085,407743  	3928,089095  	0,569721  	-0,047949  
26,573000  	12,287171  	48,185550  	1256,818530  	357,439972  	80,284311  	74,495774  	0,004141  	0,008259  	0,003963  	0,004026  	0,004327  	0,000000  	-0,000000  	22,416532  	17,922033  	19,731998  	24,613227  	35,662008  	33,009842  	35,045065  	38,109510  	48,742180  	46,270784  	50,312952  	68,975445  	23,793244  	21,482698  	21,781374  	73,169110  	0,027476  	0,013922  	-2091,849853  	-16233,860355  	-0,015675  	-0,049999  	0,285259  	0,144543  	-3,508099  	9160,155795  	3972,340966  	0,576139  	-0,047950  
27,571000  	12,291028  	48,178031  	1256,818530  	1256,670793  	80,282030  	74,484328  	0,004141  	0,008202  	0,003962  	0,004026  	0,004352  	0,000001  	-0,000001  	22,438874  	17,933784  	19,747937  	24,629098  	35,667212  	33,006554  	35,052522  	38,119031  	48,745068  	46,279787  	50,321673  	68,985216  	23,815791  	21,505754  	21,809513  	73,189394  	0,028095  	0,014236  	-2138,320044  	-1,993285  	-0,011067  	-0,049992  	0,304744  	0,154416  	-3,753654  	9037,688378  	3974,508722  	0,576454  	-0,047945  
28,572000  	12,291885  	48,167759  	57,725912  	1256,670793  	80,278906  	74,472788  	0,004146  	0,008228  	0,003963  	0,004023  	0,004371  	0,000001  	-0,000001  	22,412005  	17,929983  	19,736457  	24,611465  	35,658529  	33,000607  	35,045928  	38,116710  	48,730624  	46,262276  	50,305520  	68,972629  	23,805247  	21,485414  	21,791400  	73,170583  	0,025038  	0,012687  	-1905,010443  	24486,789105  	-0,018198  	-0,049990  	0,320064  	0,162179  	-3,948076  	9093,888607  	4066,352363  	0,589775  	-0,047943  
29,572000  	12,290844  	48,156466  	1256,818530  	956,927186  	80,280843  	74,486168  	0,004142  	0,008237  	0,003961  	0,004035  	0,004343  	0,000000  	-0,000000  	22,411798  	17,923054  	19,731041  	24,599657  	35,652250  	32,990101  	35,043613  	38,103374  	48,725832  	46,271714  	50,305186  	68,961319  	23,817051  	21,493642  	21,795675  	73,172400  	0,035362  	0,017918  	-2689,809549  	-4420,412821  	-0,012270  	-0,049997  	0,298309  	0,151156  	-3,672479  	9112,670595  	3984,217725  	0,577862  	-0,047949  
30,574000  	12,289436  	48,143595  	657,272221  	357,439972  	80,279531  	74,486043  	0,004140  	0,008251  	0,003963  	0,004048  	0,004367  	0,000001  	-0,000001  	22,427948  	17,935534  	19,737878  	24,603087  	35,664925  	33,005524  	35,044237  	38,108164  	48,725594  	46,262170  	50,311241  	68,984286  	23,815137  	21,494909  	21,794147  	73,187068  	0,045770  	0,023192  	-3480,325606  	-7102,706625  	-0,021693  	-0,049993  	0,317045  	0,160649  	-3,902332  	9143,200433  	3938,991423  	0,571302  	-0,047946  
31,571000  	12,291181  	48,124475  	657,272221  	1256,670793  	80,283780  	74,477435  	0,004138  	0,008222  	0,003962  	0,004030  	0,004341  	0,000000  	-0,000000  	22,410591  	17,919643  	19,722351  	24,597705  	35,646418  	32,988585  	35,033472  	38,092733  	48,714443  	46,249369  	50,296470  	68,973581  	23,817395  	21,489092  	21,781586  	73,178087  	0,030616  	0,015513  	-2326,644879  	9721,705463  	-0,013764  	-0,049995  	0,296446  	0,150211  	-3,656879  	9081,409257  	3892,769506  	0,564598  	-0,047947  
32,573000  	12,291059  	48,110985  	1256,818530  	57,696365  	80,292466  	74,471509  	0,004142  	0,008220  	0,003963  	0,004059  	0,004362  	0,000000  	-0,000001  	22,408289  	17,920303  	19,722865  	24,592642  	35,639764  	32,995682  	35,034268  	38,088864  	48,716787  	46,247337  	50,282370  	68,968833  	23,819444  	21,490071  	21,795037  	73,175167  	0,054816  	0,027776  	-4164,245282  	-24491,133848  	-0,018198  	-0,049995  	0,313213  	0,158707  	-3,873440  	9076,281687  	3975,758536  	0,576635  	-0,047947  
33,572000  	12,288212  	48,106189  	1256,818530  	1256,670793  	80,291935  	74,468952  	0,004146  	0,008204  	0,003961  	0,004048  	0,004374  	-0,000001  	-0,000001  	22,411207  	17,918943  	19,722737  	24,590623  	35,639254  	32,984030  	35,032308  	38,084182  	48,716374  	46,239817  	50,280503  	68,972113  	23,823223  	21,502086  	21,784454  	73,177057  	0,045119  	0,022862  	-3427,348803  	-1,993815  	-0,011070  	-0,050007  	0,322524  	0,163426  	-3,989976  	9040,691487  	4077,515951  	0,591394  	-0,047958  
34,571000  	12,289620  	48,107551  	1256,818530  	1256,670793  	80,288748  	74,468453  	0,004145  	0,008231  	0,003962  	0,004059  	0,004348  	0,000000  	-0,000000  	22,416443  	17,909607  	19,724358  	24,588416  	35,635316  	32,978612  	35,033699  	38,084517  	48,706568  	46,242105  	50,281229  	68,975197  	23,840203  	21,514492  	21,787474  	73,180408  	0,054326  	0,027527  	-4126,758771  	-1,993445  	-0,011068  	-0,049997  	0,301942  	0,152996  	-3,733621  	9099,166863  	4047,527488  	0,587044  	-0,047949  
35,572000  	12,292008  	48,107272  	1256,818530  	357,439972  	80,287467  	74,470324  	0,004137  	0,008251  	0,003964  	0,004029  	0,004374  	-0,000000  	-0,000000  	22,414034  	17,914587  	19,720175  	24,594062  	35,634017  	32,978534  	35,032817  	38,080651  	48,705193  	46,236020  	50,278268  	68,972214  	23,858101  	21,512964  	21,794460  	73,179718  	0,030271  	0,015338  	-2299,280203  	-16235,714924  	-0,015676  	-0,050005  	0,322433  	0,163379  	-3,984842  	9141,958157  	3886,350972  	0,563668  	-0,047956  
36,573000  	12,295130  	48,106839  	57,725912  	-242,047242  	80,290279  	74,479057  	0,004140  	0,008200  	0,003962  	0,004054  	0,004312  	0,000000  	-0,000000  	22,403250  	17,910965  	19,717434  	24,589560  	35,628611  	32,975327  	35,024279  	38,069935  	48,693846  	46,232618  	50,275182  	68,972448  	23,862259  	21,517130  	21,788928  	73,184320  	0,050441  	0,025559  	-3830,994387  	-27699,490363  	-0,093559  	-0,049999  	0,273168  	0,138416  	-3,372569  	9032,834590  	3945,374651  	0,572228  	-0,047951  
37,573000  	12,297946  	48,095484  	1256,818530  	956,927186  	80,297340  	74,472071  	0,004144  	0,008222  	0,003963  	0,004094  	0,004348  	0,000000  	-0,000000  	22,400253  	17,914139  	19,718970  	24,583780  	35,627385  	32,968403  	35,022167  	38,069176  	48,692524  	46,228009  	50,264966  	68,969700  	23,863747  	21,530394  	21,785894  	73,180554  	0,083018  	0,042066  	-6302,718468  	-4420,390808  	-0,012270  	-0,049997  	0,302023  	0,153037  	-3,737818  	9081,393693  	4027,706999  	0,584170  	-0,047949  
38,575000  	12,296844  	48,083913  	1256,818530  	-242,047242  	80,296278  	74,475189  	0,004145  	0,008239  	0,003964  	0,004049  	0,004369  	0,000001  	-0,000000  	22,404694  	17,911430  	19,717327  	24,580575  	35,625729  	32,967746  	35,024180  	38,067706  	48,692911  	46,223326  	50,260243  	68,970728  	23,865989  	21,531196  	21,778203  	73,183371  	0,046505  	0,023564  	-3529,604282  	-35502,971077  	-0,021690  	-0,049990  	0,318196  	0,161232  	-3,935151  	9117,319223  	4040,367539  	0,586006  	-0,047942  
39,574000  	12,298038  	48,076488  	1256,818530  	-242,047242  	80,294997  	74,483766  	0,004142  	0,008245  	0,003963  	0,004016  	0,004348  	0,000000  	-0,000000  	22,404791  	17,912466  	19,722104  	24,580559  	35,626417  	32,975159  	35,023454  	38,067035  	48,681329  	46,223809  	50,257640  	68,976572  	23,875082  	21,530268  	21,779365  	73,184719  	0,019898  	0,010083  	-1509,872682  	-35505,649442  	-0,021692  	-0,049994  	0,301702  	0,152875  	-3,724856  	9129,318925  	3984,366008  	0,577883  	-0,047946  
40,570000  	12,299446  	48,074075  	1256,818530  	956,927186  	80,290998  	74,474472  	0,004142  	0,008199  	0,003963  	0,004082  	0,004334  	-0,000001  	-0,000000  	22,405089  	17,916664  	19,723170  	24,581399  	35,625166  	32,971718  	35,021116  	38,068520  	48,675971  	46,221917  	50,252910  	68,982840  	23,885759  	21,537745  	21,792615  	73,183573  	0,073063  	0,037022  	-5543,372401  	-4421,235722  	-0,012272  	-0,050008  	0,290873  	0,147387  	-3,594421  	9029,880295  	3991,596568  	0,578932  	-0,047958  
41,574000  	12,299477  	48,068475  	1256,818530  	57,696365  	80,284717  	74,475532  	0,004137  	0,008224  	0,003962  	0,004037  	0,004344  	0,000000  	-0,000000  	22,404060  	17,910645  	19,715334  	24,578129  	35,616458  	32,962457  	35,019175  	38,061144  	48,676845  	46,217162  	50,249978  	68,985644  	23,880598  	21,542384  	21,794088  	73,184908  	0,036555  	0,018523  	-2773,011354  	-24491,054928  	-0,018198  	-0,049995  	0,298331  	0,151167  	-3,681941  	9083,904420  	3888,052695  	0,563914  	-0,047947  
42,570000  	12,298865  	48,055666  	657,272221  	1256,670793  	80,282593  	74,477341  	0,004140  	0,008216  	0,003962  	0,004032  	0,004361  	0,000001  	-0,000001  	22,404229  	17,912932  	19,716775  	24,575595  	35,615630  	32,964695  	35,018283  	38,055397  	48,674436  	46,215636  	50,244841  	68,984255  	23,879774  	21,549370  	21,788581  	73,189015  	0,032743  	0,016591  	-2483,014497  	9720,499369  	-0,013763  	-0,049988  	0,311904  	0,158044  	-3,846847  	9066,634952  	3943,341056  	0,571933  	-0,047941  
43,572000  	12,298957  	48,048055  	657,272221  	1256,670793  	80,287373  	74,467455  	0,004143  	0,008249  	0,003964  	0,004035  	0,004329  	0,000001  	-0,000000  	22,407341  	17,920010  	19,722770  	24,574337  	35,617098  	32,964919  	35,012913  	38,052979  	48,671470  	46,208618  	50,238172  	68,982475  	23,889713  	21,560718  	21,790988  	73,194190  	0,034586  	0,017525  	-2622,170144  	9721,246236  	-0,013764  	-0,049992  	0,287212  	0,145532  	-3,551253  	9138,219305  	4012,709237  	0,581994  	-0,047945  
44,574000  	12,298650  	48,047374  	1256,818530  	1256,670793  	80,293685  	74,469638  	0,004143  	0,008231  	0,003965  	0,004049  	0,004335  	-0,000000  	-0,000000  	22,400340  	17,913057  	19,722653  	24,571193  	35,603683  	32,956668  	35,005263  	38,044041  	48,663766  	46,199161  	50,234945  	68,980634  	23,877397  	21,560814  	21,790715  	73,186551  	0,046390  	0,023506  	-3517,119946  	-1,993738  	-0,011069  	-0,050005  	0,291195  	0,147551  	-3,603061  	9100,317170  	4001,849275  	0,580419  	-0,047956  
45,571000  	12,294610  	48,048179  	57,725912  	956,927186  	80,300559  	74,482363  	0,004143  	0,008236  	0,003963  	0,004030  	0,004335  	0,000001  	-0,000000  	22,399030  	17,906312  	19,717218  	24,569630  	35,595971  	32,947569  	35,003914  	38,043592  	48,659516  	46,201132  	50,231631  	68,980472  	23,870026  	21,559342  	21,784644  	73,186325  	0,031021  	0,015719  	-2352,229328  	21301,791322  	-0,021694  	-0,049993  	0,291616  	0,147764  	-3,604650  	9109,552879  	4002,795462  	0,580556  	-0,047946  
46,570000  	12,289773  	48,041372  	1256,818530  	357,439972  	80,304496  	74,476187  	0,004138  	0,008227  	0,003963  	0,004021  	0,004349  	0,000001  	-0,000000  	22,394761  	17,900801  	19,708538  	24,561043  	35,595802  	32,938232  	34,994539  	38,034018  	48,655500  	46,192546  	50,222166  	68,976293  	23,877077  	21,568128  	21,782214  	73,183545  	0,023263  	0,011788  	-1763,868411  	-16230,309330  	-0,015671  	-0,049986  	0,303033  	0,153549  	-3,752281  	9091,592237  	3907,301236  	0,566706  	-0,047940  
47,574000  	12,286467  	48,031627  	1256,818530  	1256,670793  	80,307995  	74,476842  	0,004137  	0,008225  	0,003964  	0,004059  	0,004349  	0,000001  	-0,000000  	22,400116  	17,910335  	19,719752  	24,558023  	35,596732  	32,946748  	34,997537  	38,034672  	48,654432  	46,189938  	50,221377  	68,977633  	23,882180  	21,582367  	21,788308  	73,181769  	0,054424  	0,027577  	-4125,828222  	-1,993258  	-0,011067  	-0,049992  	0,302490  	0,153274  	-3,747384  	9086,995252  	3880,066599  	0,562756  	-0,047944  
48,571000  	12,284814  	48,020427  	1256,818530  	1256,670793  	80,311932  	74,484577  	0,004140  	0,008216  	0,003965  	0,004048  	0,004305  	-0,000000  	-0,000001  	22,396551  	17,901781  	19,709424  	24,549141  	35,584946  	32,931350  	34,987872  	38,029074  	48,646857  	46,179670  	50,213250  	68,969319  	23,872350  	21,584955  	21,784640  	73,174749  	0,045607  	0,023109  	-3456,477681  	-1,993709  	-0,011069  	-0,050004  	0,267644  	0,135617  	-3,313543  	9068,187796  	3932,212773  	0,570319  	-0,047955  
49,574000  	12,288334  	48,019313  	1256,818530  	57,696365  	80,310932  	74,482644  	0,004141  	0,008225  	0,003963  	0,004057  	0,004369  	0,000000  	-0,000000  	22,391483  	17,902180  	19,714612  	24,554031  	35,587428  	32,938969  	34,983495  	38,029965  	48,638768  	46,188321  	50,223471  	68,981393  	23,882253  	21,594129  	21,784430  	73,180937  	0,053087  	0,026900  	-4022,842614  	-24493,365141  	-0,018200  	-0,050000  	0,318478  	0,161375  	-3,943516  	9087,363124  	3970,229699  	0,575833  	-0,047951  
50,573000  	12,291579  	48,029152  	1256,818530  	1256,670793  	80,306808  	74,487758  	0,004142  	0,008211  	0,003963  	0,004067  	0,004355  	0,000000  	-0,000000  	22,397751  	17,910829  	19,721125  	24,562380  	35,601300  	32,944113  	34,984442  	38,020983  	48,641105  	46,180053  	50,210122  	68,979183  	23,888397  	21,602395  	21,791492  	73,181430  	0,060534  	0,030673  	-4588,005456  	-1,993440  	-0,011068  	-0,049997  	0,307414  	0,155769  	-3,800492  	9056,626711  	3989,414690  	0,578616  	-0,047949  
51,576000  	12,294701  	48,037691  	1256,818530  	357,439972  	80,303964  	74,495836  	0,004142  	0,008315  	0,003963  	0,004051  	0,004348  	0,000001  	-0,000000  	22,396935  	17,901637  	19,704282  	24,557405  	35,584373  	32,935256  	34,983161  	38,020527  	48,631028  	46,173471  	50,197061  	68,977705  	23,887223  	21,623892  	21,787124  	73,167745  	0,048045  	0,024345  	-3642,005919  	-16229,320227  	-0,015670  	-0,049983  	0,302202  	0,153128  	-3,729045  	9281,281893  	3980,185841  	0,577277  	-0,047937  
52,569000  	12,299293  	48,041218  	1256,818530  	956,927186  	80,302152  	74,499641  	0,004136  	0,008187  	0,003962  	0,004017  	0,004334  	0,000000  	-0,000001  	22,401902  	17,900385  	19,714614  	24,560383  	35,581620  	32,928966  	34,981709  	38,014718  	48,638715  	46,170526  	50,205043  	68,989278  	23,882092  	21,636740  	21,792198  	73,172868  	0,020176  	0,010223  	-1529,335801  	-4420,310525  	-0,012269  	-0,049996  	0,290950  	0,147426  	-3,586726  	9005,796706  	3846,702933  	0,557917  	-0,047948  
53,744000  	12,303946  	48,037350  	1256,818530  	1256,670793  	80,298965  	74,496866  	0,004136  	0,008210  	0,003965  	0,004066  	0,004348  	0,000001  	-0,000001  	22,385602  	17,894930  	19,703558  	24,547990  	35,581459  	32,925416  	34,971082  	38,009771  	48,616868  	46,158371  	50,175365  	68,965208  	23,858421  	21,629680  	21,776349  	73,162011  	0,060435  	0,030623  	-4579,932685  	-1,993311  	-0,011067  	-0,049993  	0,301803  	0,152926  	-3,720257  	9055,192718  	3848,545878  	0,558184  	-0,047945  
54,731000  	12,304497  	48,038155  	1256,818530  	657,183579  	80,298028  	74,495369  	0,004136  	0,008241  	0,003961  	0,004070  	0,004335  	0,000000  	-0,000000  	22,399770  	17,904697  	19,726038  	24,562178  	35,583004  	32,934831  	34,981795  	38,019845  	48,635313  	46,177718  	50,202637  	68,984956  	23,876129  	21,658750  	21,798530  	73,175735  	0,063642  	0,032248  	-4823,064209  	-9725,422811  	-0,013764  	-0,049995  	0,291468  	0,147689  	-3,593210  	9120,876970  	3853,545132  	0,558909  	-0,047948  
55,830000  	12,302293  	48,040754  	357,499067  	-242,047242  	80,298684  	74,505474  	0,004135  	0,008250  	0,003961  	0,004017  	0,004317  	0,000000  	-0,000001  	22,382758  	17,892345  	19,709030  	24,542777  	35,573578  	32,926428  	34,963793  	37,996539  	48,623783  	46,163913  	50,187837  	68,969764  	23,842718  	21,647455  	21,778650  	73,162152  	0,020212  	0,010242  	-1531,985993  	-30940,279383  	-0,051173  	-0,049995  	0,277379  	0,140550  	-3,413954  	9140,019755  	3845,297775  	0,557713  	-0,047947  
56,799000  	12,298559  	48,037722  	957,045375  	956,927186  	80,296684  	74,504788  	0,004140  	0,008222  	0,003963  	0,004030  	0,004377  	0,000000  	-0,000000  	22,392598  	17,895705  	19,700830  	24,552094  	35,577665  	32,921813  	34,971014  	38,003187  	48,611272  	46,164125  	50,188445  	68,968773  	23,831629  	21,649022  	21,782142  	73,167624  	0,031312  	0,015866  	-2373,290317  	-1,916996  	-0,013765  	-0,049997  	0,324994  	0,164677  	-3,999089  	9079,624370  	3952,534600  	0,573267  	-0,047949  
57,571000  	12,294977  	48,046570  	57,725912  	-242,047242  	80,297559  	74,502792  	0,004139  	0,008225  	0,003964  	0,004043  	0,004387  	0,000000  	-0,000001  	22,394778  	17,896362  	19,706307  	24,545226  	35,581747  	32,918257  	34,968041  	38,014671  	48,615933  	46,165428  	50,190212  	68,982910  	23,834379  	21,667046  	21,787506  	73,167577  	0,041068  	0,020809  	-3113,854112  	-27698,366602  	-0,093555  	-0,049997  	0,332691  	0,168577  	-4,095824  	9086,795045  	3915,435615  	0,567886  	-0,047949  
58,573000  	12,290753  	48,057337  	657,272221  	357,439972  	80,299559  	74,506160  	0,004134  	0,008197  	0,003964  	0,004065  	0,004307  	0,000001  	-0,000001  	22,387118  	17,897288  	19,700921  	24,547210  	35,577901  	32,920233  	34,976740  	38,009776  	48,609960  	46,165708  	50,187291  	68,978472  	23,838483  	21,677118  	21,787880  	73,167438  	0,059358  	0,030077  	-4502,554742  	-7101,583014  	-0,021689  	-0,049984  	0,269385  	0,136499  	-3,315667  	9026,838984  	3809,279138  	0,552489  	-0,047938  
59,583000  	12,290753  	48,065969  	-242,047242  	1256,670793  	80,301402  	74,497677  	0,004132  	0,008208  	0,003961  	0,004090  	0,004331  	-0,000001  	-0,000000  	22,388009  	17,896307  	19,712320  	24,548121  	35,575925  	32,926985  	34,968545  	38,019854  	48,612650  	46,159894  	50,184388  	68,979882  	23,846827  	21,678574  	21,788938  	73,163324  	0,079263  	0,040163  	-6013,867012  	35515,505178  	-0,021701  	-0,050010  	0,288624  	0,146248  	-3,558801  	9050,188244  	3765,330894  	0,546115  	-0,047960  
60,572000  	12,291181  	48,080881  	-242,047242  	57,696365  	80,305527  	74,499610  	0,004136  	0,008244  	0,003961  	0,004058  	0,004359  	0,000000  	-0,000000  	22,398292  	17,892649  	19,707462  	24,545665  	35,574865  	32,932278  	34,968398  	38,016226  	48,616698  	46,166067  	50,187256  	68,973432  	23,842835  	21,676795  	21,796098  	73,162784  	0,053946  	0,027335  	-4094,648152  	27696,989152  	-0,093560  	-0,049995  	0,310419  	0,157292  	-3,828987  	9127,021847  	3850,798367  	0,558511  	-0,047947  
61,574000  	12,291610  	48,102570  	1256,818530  	1256,670793  	80,306370  	74,514768  	0,004139  	0,008218  	0,003962  	0,004028  	0,004356  	0,000001  	-0,000001  	22,387957  	17,892959  	19,699730  	24,540800  	35,570689  	32,927520  	34,969178  	38,014466  	48,618197  	46,170891  	50,183755  	68,974221  	23,850446  	21,690482  	21,787761  	73,162355  	0,029043  	0,014716  	-2205,762758  	-1,993004  	-0,011065  	-0,049984  	0,308230  	0,156182  	-3,792619  	9071,930186  	3922,616747  	0,568927  	-0,047938  
62,571000  	12,293018  	48,131034  	1256,818530  	657,183579  	80,304870  	74,517700  	0,004141  	0,008207  	0,003963  	0,004026  	0,004332  	0,000000  	-0,000000  	22,391628  	17,900877  	19,712053  	24,550412  	35,581518  	32,936137  	34,982751  	38,020604  	48,622692  	46,175684  	50,188704  	68,984288  	23,869104  	21,713396  	21,796980  	73,172776  	0,027553  	0,013961  	-2094,186774  	-9725,443466  	-0,013764  	-0,049996  	0,289104  	0,146491  	-3,554563  	9047,782927  	3960,654857  	0,574444  	-0,047948  
63,575000  	12,296599  	48,153403  	1256,818530  	657,183579  	80,300559  	74,515984  	0,004138  	0,008243  	0,003962  	0,004101  	0,004290  	0,000001  	-0,000000  	22,395188  	17,902557  	19,712299  	24,560016  	35,588748  	32,941091  	34,986270  	38,024427  	48,626157  	46,177906  	50,197380  	68,983197  	23,877206  	21,724012  	21,796325  	73,167685  	0,088388  	0,044787  	-6721,447340  	-9725,070961  	-0,013764  	-0,049993  	0,256241  	0,129839  	-3,149096  	9125,305583  	3909,935024  	0,567088  	-0,047946  
64,573000  	12,300273  	48,169925  	1256,818530  	57,696365  	80,296059  	74,519103  	0,004135  	0,008255  	0,003964  	0,004067  	0,004368  	0,000002  	-0,000000  	22,389864  	17,896340  	19,708961  	24,557006  	35,584526  	32,936148  	34,978613  	38,022621  	48,624638  	46,171984  	50,193427  	68,978900  	23,868396  	21,726511  	21,789775  	73,161564  	0,061227  	0,031024  	-4657,706665  	-24483,831925  	-0,018193  	-0,049978  	0,317368  	0,160812  	-3,895178  	9151,876552  	3830,081119  	0,555506  	-0,047933  
65,575000  	12,300548  	48,178186  	1256,818530  	1256,670793  	80,298122  	74,505224  	0,004135  	0,008278  	0,003962  	0,004007  	0,004347  	-0,000000  	-0,000000  	22,393075  	17,893038  	19,705131  	24,553349  	35,581273  	32,935060  	34,975516  	38,023823  	48,618781  	46,170761  	50,194222  	68,979689  	23,862024  	21,743288  	21,790747  	73,158844  	0,012095  	0,006128  	-920,275208  	-1,993704  	-0,011069  	-0,050004  	0,301152  	0,152596  	-3,706347  	9201,801027  	3834,494303  	0,556146  	-0,047955  
66,572000  	12,302508  	48,190067  	657,272221  	1256,670793  	80,298934  	74,522503  	0,004136  	0,008265  	0,003965  	0,004055  	0,004330  	0,000001  	-0,000000  	22,394244  	17,893877  	19,706058  	24,554272  	35,587996  	32,940943  	34,983691  	38,032281  	48,620226  	46,173839  	50,207792  	68,982728  	23,870367  	21,771634  	21,792222  	73,158337  	0,051283  	0,025986  	-3903,204858  	9721,212773  	-0,013764  	-0,049992  	0,287756  	0,145808  	-3,531428  	9172,081922  	3857,605261  	0,559498  	-0,047945  
67,572000  	12,305354  	48,204918  	657,272221  	1256,670793  	80,299340  	74,536569  	0,004138  	0,008217  	0,003963  	0,004106  	0,004310  	0,000002  	-0,000000  	22,391092  	17,898306  	19,716666  	24,561835  	35,598395  	32,949727  	34,994551  	38,040406  	48,629701  	46,176468  	50,213769  	68,987511  	23,878274  	21,792398  	21,794591  	73,156879  	0,092381  	0,046810  	-7033,516269  	9718,403300  	-0,013760  	-0,049976  	0,271756  	0,137701  	-3,327187  	9069,703146  	3905,698368  	0,566474  	-0,047931  
68,573000  	12,309089  	48,221873  	1256,818530  	1256,670793  	80,303089  	74,521973  	0,004137  	0,008231  	0,003963  	0,004059  	0,004355  	0,000001  	-0,000000  	22,394180  	17,905119  	19,716544  	24,571811  	35,601381  	32,954927  	34,997109  	38,038263  	48,636305  	46,182414  	50,213282  	68,985094  	23,874728  	21,802540  	21,791391  	73,155126  	0,054787  	0,027761  	-4172,804652  	-1,993162  	-0,011066  	-0,049989  	0,307381  	0,155752  	-3,775325  	9099,362118  	3882,029583  	0,563041  	-0,047942  
69,572000  	12,311967  	48,247121  	57,725912  	-242,047242  	80,297840  	74,511524  	0,004136  	0,008229  	0,003963  	0,004002  	0,004367  	0,000000  	-0,000000  	22,393143  	17,900737  	19,705376  	24,568721  	35,599829  	32,952445  	34,995098  	38,036359  	48,634960  	46,184597  	50,213783  	68,978579  	23,864796  	21,808134  	21,780301  	73,158522  	0,008033  	0,004070  	-612,183052  	-27696,808753  	-0,093550  	-0,049994  	0,317119  	0,160686  	-3,898425  	9095,459137  	3867,158920  	0,560884  	-0,047946  
70,573000  	12,313069  	48,253680  	1256,818530  	357,439972  	80,292029  	74,514768  	0,004137  	0,008220  	0,003963  	0,004022  	0,004387  	0,000000  	-0,000000  	22,388632  	17,891679  	19,703616  	24,561283  	35,600507  	32,952007  	34,995027  	38,044108  	48,630569  	46,185993  	50,207557  	68,980856  	23,858055  	21,809671  	21,779914  	73,151775  	0,024216  	0,012270  	-1845,807223  	-16232,816565  	-0,015674  	-0,049995  	0,332581  	0,168521  	-4,082112  	9076,620554  	3871,946342  	0,561578  	-0,047947  
71,571000  	12,313620  	48,254423  	357,499067  	357,439972  	80,293466  	74,511119  	0,004134  	0,008220  	0,003964  	0,004017  	0,004312  	0,000000  	-0,000001  	22,391676  	17,900796  	19,710744  	24,564725  	35,601785  	32,957979  	35,000100  	38,045447  	48,639153  	46,193741  	50,211438  	68,977139  	23,867938  	21,814159  	21,784763  	73,151704  	0,020159  	0,010215  	-1536,566760  	-1,685148  	-0,026850  	-0,049997  	0,273151  	0,138407  	-3,355612  	9075,383938  	3816,778020  	0,553577  	-0,047949  
72,573000  	12,313497  	48,253928  	-242,047242  	956,927186  	80,295528  	74,507064  	0,004135  	0,008242  	0,003962  	0,004100  	0,004307  	0,000001  	-0,000000  	22,400186  	17,899702  	19,708882  	24,566582  	35,602800  	32,957120  	35,002314  	38,053241  	48,646013  	46,186328  	50,221131  	68,973377  	23,875195  	21,829424  	21,778765  	73,156106  	0,087454  	0,044313  	-6665,927446  	34185,875772  	-0,026847  	-0,049988  	0,269247  	0,136430  	-3,311157  	9123,921818  	3843,235936  	0,557414  	-0,047941  
73,570000  	12,311263  	48,251762  	57,725912  	1256,670793  	80,292497  	74,509466  	0,004136  	0,008224  	0,003963  	0,004076  	0,004350  	0,000000  	-0,000001  	22,393018  	17,890446  	19,701205  	24,566091  	35,604762  	32,955516  	34,991345  	38,050341  	48,646562  	46,178749  	50,219352  	68,967699  	23,871750  	21,835595  	21,773740  	73,146421  	0,068206  	0,034560  	-5198,823224  	24489,298174  	-0,018200  	-0,049996  	0,303087  	0,153576  	-3,723810  	9085,150940  	3861,262907  	0,560029  	-0,047948  
74,573000  	12,306365  	48,258631  	1256,818530  	1256,670793  	80,292747  	74,514331  	0,004139  	0,008254  	0,003964  	0,004022  	0,004393  	0,000001  	-0,000000  	22,397769  	17,902122  	19,708431  	24,573323  	35,611116  	32,958756  	35,005400  	38,061566  	48,651836  	46,205432  	50,230746  	68,976030  	23,884258  	21,854454  	21,781756  	73,161120  	0,024180  	0,012252  	-1843,652412  	-1,993088  	-0,011066  	-0,049987  	0,337677  	0,171103  	-4,145488  	9148,749640  	3915,576837  	0,567906  	-0,047940  
75,570000  	12,302416  	48,271533  	357,499067  	357,439972  	80,289529  	74,517762  	0,004140  	0,008213  	0,003963  	0,003980  	0,004379  	0,000001  	-0,000001  	22,397487  	17,896129  	19,710450  	24,572426  	35,600884  	32,963421  	35,008603  	38,061117  	48,644207  	46,201619  	50,228145  	68,975974  	23,887747  	21,854675  	21,776231  	73,147478  	-0,009674  	-0,004902  	737,979050  	-1,685029  	-0,026849  	-0,049993  	0,326703  	0,165543  	-4,006154  	9062,021696  	3943,517583  	0,571959  	-0,047945  
76,570000  	12,299416  	48,276978  	957,045375  	956,927186  	80,290342  	74,519634  	0,004138  	0,008232  	0,003963  	0,004082  	0,004307  	0,000001  	-0,000000  	22,404750  	17,902882  	19,713075  	24,574818  	35,621009  	32,971438  	35,018195  	38,070152  	48,665797  	46,214322  	50,236055  	68,984914  	23,900495  	21,864726  	21,790872  	73,162232  	0,073066  	0,037023  	-5575,060903  	-1,916729  	-0,013763  	-0,049990  	0,269171  	0,136391  	-3,300073  	9101,327403  	3899,724683  	0,565607  	-0,047943  
77,571000  	12,293385  	48,274936  	957,045375  	1256,670793  	80,292341  	74,512616  	0,004133  	0,008239  	0,003961  	0,004064  	0,004329  	-0,000001  	-0,000000  	22,401396  	17,898262  	19,707502  	24,582670  	35,618714  	32,966413  	35,008271  	38,069784  	48,664167  	46,204307  	50,236945  	68,975679  	23,894443  	21,873595  	21,795976  	73,145536  	0,058605  	0,029696  	-4472,138459  	4417,328832  	-0,012272  	-0,050007  	0,286472  	0,145158  	-3,517670  	9117,539946  	3785,243177  	0,549003  	-0,047958  
78,571000  	12,289406  	48,267201  	-242,047242  	657,183579  	80,296403  	74,517856  	0,004132  	0,008233  	0,003963  	0,004040  	0,004376  	0,000000  	-0,000000  	22,395968  	17,898606  	19,712661  	24,578282  	35,629936  	32,970708  	35,010804  	38,076826  	48,665727  	46,214560  	50,239639  	68,977706  	23,903404  	21,868140  	21,781860  	73,156154  	0,038683  	0,019601  	-2951,598996  	32740,455908  	-0,035222  	-0,049995  	0,324357  	0,164354  	-3,982061  	9104,311411  	3764,504746  	0,545995  	-0,047947  
79,574000  	12,286834  	48,264045  	657,272221  	657,183579  	80,296997  	74,508936  	0,004138  	0,008230  	0,003963  	0,003990  	0,004353  	0,000001  	-0,000001  	22,398301  	17,905357  	19,706762  	24,567794  	35,627092  	32,971187  	35,014937  	38,071026  	48,658621  	46,209704  	50,246069  	68,973339  	23,879968  	21,866404  	21,783362  	73,152014  	-0,001080  	-0,000547  	82,366877  	-1,810327  	-0,018197  	-0,049990  	0,305980  	0,155042  	-3,762628  	9098,269821  	3898,121815  	0,565375  	-0,047942  
80,575000  	12,281140  	48,270914  	1256,818530  	57,696365  	80,293810  	74,511493  	0,004141  	0,008267  	0,003964  	0,004062  	0,004304  	0,000001  	-0,000001  	22,410050  	17,907348  	19,731475  	24,585535  	35,635442  	32,986777  	35,029620  	38,079139  	48,684014  	46,227973  	50,261458  	68,990755  	23,911230  	21,869521  	21,786702  	73,165770  	0,056648  	0,028704  	-4323,755742  	-24489,532125  	-0,018197  	-0,049991  	0,266728  	0,135153  	-3,276686  	9177,486103  	3962,363642  	0,574692  	-0,047944  
81,571000  	12,275447  	48,282919  	1256,818530  	57,696365  	80,291466  	74,516265  	0,004139  	0,008242  	0,003963  	0,004110  	0,004344  	0,000002  	-0,000000  	22,408252  	17,903426  	19,717047  	24,587228  	35,627701  	32,991689  	35,021034  	38,078532  	48,675822  	46,223841  	50,264340  	68,974963  	23,897195  	21,853435  	21,783393  	73,160537  	0,096055  	0,048672  	-7335,255324  	-24483,726101  	-0,018193  	-0,049978  	0,298796  	0,151402  	-3,666131  	9123,323319  	3925,970767  	0,569414  	-0,047932  
82,571000  	12,275753  	48,287808  	1256,818530  	657,183579  	80,289154  	74,509341  	0,004137  	0,008232  	0,003963  	0,004058  	0,004350  	0,000001  	-0,000000  	22,416351  	17,912224  	19,715549  	24,596700  	35,643524  	32,986175  	35,032456  	38,095943  	48,688385  	46,229836  	50,260810  	68,991501  	23,914603  	21,847189  	21,788842  	73,158702  	0,053479  	0,027098  	-4084,464770  	-9724,603727  	-0,013763  	-0,049991  	0,303263  	0,153665  	-3,723897  	9101,367020  	3869,234882  	0,561185  	-0,047943  
83,573000  	12,277865  	48,287065  	1256,818530  	657,183579  	80,286873  	74,519852  	0,004137  	0,008226  	0,003964  	0,004003  	0,004389  	0,000001  	-0,000001  	22,410354  	17,909825  	19,724849  	24,590594  	35,630219  	32,991005  	35,035522  	38,084718  	48,685822  	46,236203  	50,263153  	68,986438  	23,911542  	21,840125  	21,778169  	73,155896  	0,009446  	0,004787  	-721,407405  	-9722,971970  	-0,013761  	-0,049981  	0,334214  	0,169349  	-4,094893  	9088,455421  	3879,791216  	0,562716  	-0,047935  
84,571000  	12,277130  	48,284528  	57,725912  	1256,670793  	80,285936  	74,520600  	0,004134  	0,008239  	0,003964  	0,004057  	0,004345  	0,000000  	-0,000000  	22,408097  	17,912498  	19,717299  	24,592453  	35,629575  	32,995584  	35,033073  	38,082617  	48,691980  	46,241539  	50,268767  	68,981978  	23,919170  	21,832815  	21,781000  	73,159888  	0,053209  	0,026961  	-4063,282175  	24490,752681  	-0,018201  	-0,049999  	0,299858  	0,151940  	-3,672874  	9117,726712  	3817,018097  	0,553612  	-0,047951  
85,574000  	12,274957  	48,282424  	57,725912  	1256,670793  	80,284436  	74,513084  	0,004134  	0,008222  	0,003961  	0,004107  	0,004311  	0,000001  	-0,000000  	22,404858  	17,904318  	19,713503  	24,597073  	35,631488  	32,995390  	35,032715  	38,084071  	48,690584  	46,242730  	50,273677  	68,978029  	23,903313  	21,840653  	21,783878  	73,169725  	0,093064  	0,047156  	-7106,826745  	24483,480146  	-0,018195  	-0,049983  	0,272673  	0,138165  	-3,343369  	9080,342428  	3803,199537  	0,551607  	-0,047936  
86,570000  	12,276549  	48,281991  	1256,818530  	1256,670793  	80,284124  	74,517014  	0,004136  	0,008257  	0,003962  	0,004029  	0,004369  	0,000000  	-0,000001  	22,408684  	17,912112  	19,717903  	24,592150  	35,638016  	32,995661  	35,032437  	38,092224  	48,698885  	46,241486  	50,277288  	68,979140  	23,900967  	21,847462  	21,780751  	73,164766  	0,030034  	0,015218  	-2293,418002  	-1,993402  	-0,011067  	-0,049996  	0,318138  	0,161203  	-3,897984  	9154,831555  	3861,453557  	0,560056  	-0,047948  
87,570000  	12,281783  	48,285889  	1256,818530  	357,439972  	80,288498  	74,514176  	0,004138  	0,008244  	0,003964  	0,003999  	0,004403  	0,000001  	-0,000001  	22,409429  	17,904088  	19,712513  	24,586285  	35,636167  	32,992306  	35,035075  	38,094271  	48,698320  	46,236956  	50,272705  	68,978426  	23,879959  	21,848473  	21,781521  	73,155057  	0,006164  	0,003124  	-470,705018  	-16229,815967  	-0,015671  	-0,049985  	0,345549  	0,175092  	-4,239118  	9126,745943  	3889,676747  	0,564150  	-0,047938  
88,573000  	12,287110  	48,295852  	1256,818530  	956,927186  	80,287748  	74,510682  	0,004139  	0,008219  	0,003963  	0,003992  	0,004319  	-0,000000  	-0,000001  	22,411511  	17,899049  	19,709850  	24,584666  	35,641507  	32,999056  	35,042178  	38,094277  	48,696808  	46,247245  	50,270855  	68,977880  	23,872599  	21,852128  	21,778292  	73,161242  	0,000416  	0,000211  	-31,788934  	-4420,868298  	-0,012271  	-0,050003  	0,279127  	0,141436  	-3,425899  	9073,983902  	3916,515963  	0,568043  	-0,047954  
89,571000  	12,294640  	48,297771  	957,045375  	956,927186  	80,289998  	74,517450  	0,004139  	0,008219  	0,003963  	0,004058  	0,004303  	0,000000  	-0,000001  	22,415749  	17,909458  	19,719578  	24,593246  	35,650409  	33,012043  	35,045160  	38,100534  	48,706536  	46,261688  	50,281169  	68,980537  	23,876032  	21,863062  	21,777985  	73,171739  	0,053541  	0,027130  	-4088,148693  	-1,917040  	-0,013765  	-0,049999  	0,266107  	0,134838  	-3,263540  	9073,787232  	3930,278033  	0,570039  	-0,047950  
90,574000  	12,297334  	48,292325  	357,499067  	357,439972  	80,290623  	74,513895  	0,004130  	0,008242  	0,003962  	0,004083  	0,004330  	0,000001  	-0,000000  	22,410063  	17,908836  	19,719439  	24,595877  	35,649267  	33,004178  	35,041879  	38,104298  	48,709960  	46,259669  	50,285038  	68,978788  	23,868151  	21,861310  	21,778657  	73,165014  	0,073687  	0,037338  	-5625,120162  	-1,684941  	-0,026847  	-0,049990  	0,287671  	0,145765  	-3,530559  	9123,914744  	3737,947974  	0,542144  	-0,047943  
91,571000  	12,301375  	48,278680  	1256,818530  	1256,670793  	80,288436  	74,506222  	0,004134  	0,008223  	0,003961  	0,004027  	0,004367  	-0,000000  	-0,000001  	22,407387  	17,908285  	19,712589  	24,594233  	35,650674  	33,000823  	35,043603  	38,105355  	48,710095  	46,255813  	50,289409  	68,987888  	23,873510  	21,867438  	21,783203  	73,168212  	0,028879  	0,014633  	-2203,518689  	-1,993684  	-0,011069  	-0,050004  	0,316955  	0,160604  	-3,893650  	9081,450996  	3820,951126  	0,554182  	-0,047954  
92,573000  	12,303456  	48,275772  	1256,818530  	1256,670793  	80,288623  	74,502417  	0,004141  	0,008236  	0,003965  	0,004042  	0,004371  	-0,000000  	-0,000001  	22,413355  	17,914611  	19,721958  	24,598135  	35,656837  	33,008272  	35,054547  	38,109208  	48,715758  	46,259748  	50,294888  	68,998052  	23,892748  	21,879383  	21,790596  	73,176974  	0,040312  	0,020426  	-3075,410670  	-1,993623  	-0,011069  	-0,050002  	0,320398  	0,162348  	-3,938662  	9110,878634  	3959,108477  	0,574220  	-0,047953  
93,572000  	12,304742  	48,285363  	1256,818530  	956,927186  	80,291873  	74,495431  	0,004139  	0,008237  	0,003963  	0,004068  	0,004341  	0,000001  	-0,000000  	22,415100  	17,911832  	19,727997  	24,604259  	35,659947  	33,011565  	35,055860  	38,107964  	48,719124  	46,260649  	50,296774  	68,995060  	23,904190  	21,875533  	21,793066  	73,174826  	0,061477  	0,031151  	-4691,190500  	-4419,508019  	-0,012267  	-0,049986  	0,296366  	0,150171  	-3,649670  	9111,734643  	3923,541750  	0,569062  	-0,047939  
94,573000  	12,299232  	48,289633  	1256,818530  	-242,047242  	80,295997  	74,493497  	0,004137  	0,008235  	0,003963  	0,004072  	0,004328  	-0,000000  	-0,000000  	22,412439  	17,909477  	19,720402  	24,607311  	35,661634  	33,011879  	35,048971  	38,109137  	48,719130  	46,260004  	50,294920  	68,986881  	23,905525  	21,865546  	21,787593  	73,173560  	0,065156  	0,033015  	-4973,249282  	-35511,261008  	-0,021696  	-0,050003  	0,286401  	0,145121  	-3,530636  	9109,208353  	3888,292773  	0,563949  	-0,047954  
95,570000  	12,297028  	48,292418  	1256,818530  	657,183579  	80,295372  	74,487041  	0,004138  	0,008241  	0,003961  	0,004059  	0,004355  	0,000001  	-0,000000  	22,409718  	17,914041  	19,716917  	24,604200  	35,657514  	33,008442  	35,049956  	38,113693  	48,718037  	46,263660  	50,287527  	68,980245  	23,903252  	21,852555  	21,775379  	73,173022  	0,054286  	0,027507  	-4144,117832  	-9724,075952  	-0,013762  	-0,049988  	0,307722  	0,155925  	-3,797290  	9122,052038  	3908,664027  	0,566904  	-0,047941  
96,572000  	12,298865  	48,289881  	1256,818530  	1256,670793  	80,290810  	74,489911  	0,004135  	0,008244  	0,003962  	0,003997  	0,004364  	0,000001  	-0,000000  	22,409609  	17,911779  	19,715655  	24,599326  	35,653129  	33,011265  	35,051896  	38,108661  	48,716663  	46,265108  	50,293675  	68,983622  	23,909100  	21,841537  	21,769763  	73,176970  	0,003903  	0,001978  	-297,916736  	-1,993078  	-0,011066  	-0,049987  	0,314410  	0,159314  	-3,874857  	9128,554883  	3830,109364  	0,555510  	-0,047940  
97,570000  	12,300916  	48,284652  	1256,818530  	57,696365  	80,291997  	74,509310  	0,004136  	0,008225  	0,003962  	0,004032  	0,004354  	0,000000  	-0,000000  	22,413927  	17,910302  	19,726973  	24,603848  	35,662244  	33,018287  	35,061226  	38,119579  	48,725734  	46,267316  	50,307212  	68,986405  	23,919321  	21,842432  	21,779079  	73,183941  	0,032320  	0,016377  	-2466,474429  	-24491,316800  	-0,018198  	-0,049995  	0,306246  	0,155177  	-3,762397  	9086,741279  	3847,776219  	0,558073  	-0,047947  
98,571000  	12,299569  	48,283971  	1256,818530  	1256,670793  	80,292247  	74,514238  	0,004136  	0,008239  	0,003961  	0,004036  	0,004361  	0,000002  	-0,000000  	22,412282  	17,917562  	19,730669  	24,616168  	35,669011  	33,026603  	35,064975  	38,124745  	48,740939  	46,280050  	50,311255  	68,988858  	23,930219  	21,834697  	21,789498  	73,187467  	0,035487  	0,017981  	-2708,183227  	-1,992621  	-0,011063  	-0,049974  	0,312096  	0,158142  	-3,831178  	9117,247771  	3848,983666  	0,558248  	-0,047929  
99,571000  	12,296446  	48,290097  	357,499067  	357,439972  	80,295559  	74,514830  	0,004139  	0,008423  	0,003965  	0,004018  	0,004359  	-0,000001  	-0,000001  	22,416772  	17,921623  	19,731830  	24,613613  	35,669744  	33,024272  	35,059285  	38,123516  	48,742197  	46,279853  	50,313941  	68,986052  	23,934962  	21,822452  	21,795527  	73,188439  	0,020852  	0,010566  	-1591,762115  	-1,685450  	-0,026855  	-0,050007  	0,310441  	0,157303  	-3,812647  	9513,800339  	3911,587319  	0,567328  	-0,047957  
100,570000  	12,295099  	48,296471  	-242,047242  	956,927186  	80,297559  	74,516515  	0,004140  	0,008266  	0,003965  	0,004066  	0,004292  	0,000001  	-0,000001  	22,411767  	17,908542  	19,714790  	24,611930  	35,660113  	33,017449  	35,053827  	38,119996  	48,723454  	46,270200  	50,301101  	68,980942  	23,931244  	21,801147  	21,785806  	73,172054  	0,059750  	0,030276  	-4562,049535  	34184,849147  	-0,026847  	-0,049986  	0,257797  	0,130628  	-3,166288  	9175,938210  	3936,435307  	0,570932  	-0,047940  
101,575000  	12,289283  	48,304237  	1256,818530  	1256,670793  	80,297247  	74,542183  	0,004139  	0,008249  	0,003962  	0,004043  	0,004335  	0,000001  	-0,000001  	22,405883  	17,916142  	19,721843  	24,601316  	35,658542  	33,015634  	35,065971  	38,118646  	48,720571  	46,277115  	50,308466  	68,984730  	23,942270  	21,785658  	21,782197  	73,174713  	0,041536  	0,021047  	-3172,550096  	-1,992948  	-0,011065  	-0,049983  	0,291779  	0,147846  	-3,567556  	9138,154927  	3928,004361  	0,569709  	-0,047937  
102,571000  	12,285793  	48,302629  	1256,818530  	657,183579  	80,294560  	74,538191  	0,004139  	0,008413  	0,003964  	0,004033  	0,004395  	-0,000000  	-0,000000  	22,415150  	17,913358  	19,719931  	24,607073  	35,657114  	33,020689  	35,058294  	38,115563  	48,722990  	46,278254  	50,315524  	68,982008  	23,946556  	21,765579  	21,781031  	73,183968  	0,033267  	0,016856  	-2541,054666  	-9726,651437  	-0,013766  	-0,050003  	0,339281  	0,171916  	-4,149300  	9491,982700  	3916,734857  	0,568074  	-0,047954  
103,571000  	12,282763  	48,296038  	357,499067  	657,183579  	80,291029  	74,532234  	0,004135  	0,008172  	0,003963  	0,004030  	0,004320  	0,000001  	-0,000001  	22,404269  	17,906019  	19,717938  	24,611632  	35,666851  	33,012945  	35,054551  	38,120366  	48,729432  	46,276226  	50,313305  	68,975069  	23,943047  	21,753551  	21,771298  	73,171885  	0,030629  	0,015520  	-2339,327940  	7099,252657  	-0,021693  	-0,049993  	0,279437  	0,141593  	-3,418871  	8971,762887  	3840,312644  	0,556990  	-0,047945  
104,570000  	12,282273  	48,289417  	-242,047242  	1256,670793  	80,290529  	74,541279  	0,004133  	0,008219  	0,003963  	0,004069  	0,004338  	0,000001  	-0,000001  	22,418060  	17,903377  	19,721273  	24,619160  	35,658518  	33,013416  	35,054801  	38,119926  	48,739405  	46,272530  	50,311366  	68,987975  	23,936852  	21,752451  	21,774196  	73,179844  	0,062879  	0,031861  	-4801,723718  	35502,043378  	-0,021692  	-0,049989  	0,294261  	0,149104  	-3,594268  	9074,728843  	3794,599125  	0,550360  	-0,047942  
105,570000  	12,286742  	48,290623  	1256,818530  	956,927186  	80,289217  	74,539782  	0,004137  	0,008222  	0,003962  	0,004023  	0,004377  	0,000002  	-0,000000  	22,406141  	17,918332  	19,713740  	24,614198  	35,663655  	33,020843  	35,055816  	38,129608  	48,740420  	46,282826  	50,322194  	68,982599  	23,941698  	21,734405  	21,784834  	73,185660  	0,025576  	0,012960  	-1952,949799  	-4418,965461  	-0,012266  	-0,049979  	0,324605  	0,164480  	-3,965038  	9080,048838  	3875,145017  	0,562042  	-0,047933  
106,571000  	12,289620  	48,296007  	1256,818530  	357,439972  	80,291154  	74,526059  	0,004140  	0,008215  	0,003963  	0,003982  	0,004359  	-0,000001  	-0,000000  	22,401278  	17,904094  	19,703662  	24,604606  	35,654162  	33,010973  	35,049475  	38,118824  	48,732331  	46,276242  	50,307854  	68,975249  	23,923257  	21,720591  	21,771021  	73,177238  	-0,007905  	-0,004006  	603,668593  	-16238,206704  	-0,015679  	-0,050014  	0,310373  	0,157268  	-3,801519  	9064,651980  	3939,160889  	0,571327  	-0,047963  
107,571000  	12,289069  	48,302876  	1256,818530  	1256,670793  	80,295684  	74,518137  	0,004138  	0,008255  	0,003965  	0,004034  	0,004357  	0,000001  	-0,000001  	22,402532  	17,913289  	19,714463  	24,607526  	35,665875  	33,016848  	35,052542  	38,125635  	48,737114  	46,286510  	50,313566  	68,976465  	23,927245  	21,712437  	21,782021  	73,185409  	0,034549  	0,017506  	-2638,769193  	-1,993188  	-0,011066  	-0,049990  	0,308912  	0,156528  	-3,791787  	9151,602063  	3904,561532  	0,566309  	-0,047942  
108,571000  	12,286314  	48,307022  	1256,818530  	57,696365  	80,295122  	74,509341  	0,004138  	0,008228  	0,003964  	0,004077  	0,004312  	0,000000  	-0,000001  	22,415270  	17,919856  	19,726074  	24,622261  	35,678814  	33,022630  	35,063285  	38,139530  	48,747926  	46,290643  	50,331764  	68,989184  	23,935153  	21,713181  	21,797458  	73,196170  	0,068837  	0,034880  	-5258,645525  	-24491,015468  	-0,018198  	-0,049994  	0,273439  	0,138554  	-3,361148  	9093,604921  	3892,246985  	0,564523  	-0,047947  
109,573000  	12,283528  	48,304083  	1256,818530  	956,927186  	80,291310  	74,502698  	0,004133  	0,008240  	0,003962  	0,004070  	0,004314  	0,000000  	-0,000000  	22,418969  	17,919503  	19,726236  	24,622173  	35,677056  	33,033572  	35,072232  	38,146005  	48,741253  	46,293435  	50,320618  	68,990241  	23,924247  	21,710747  	21,782034  	73,196878  	0,063733  	0,032294  	-4868,721835  	-4420,178123  	-0,012269  	-0,049994  	0,275184  	0,139438  	-3,384246  	9119,163535  	3783,054238  	0,548686  	-0,047946  
110,571000  	12,278508  	48,298018  	1256,818530  	-242,047242  	80,287936  	74,498519  	0,004138  	0,008241  	0,003963  	0,004015  	0,004367  	0,000001  	-0,000000  	22,413290  	17,910052  	19,721914  	24,606832  	35,662530  	33,029340  	35,068593  	38,132496  	48,738811  	46,289903  	50,310409  	68,978250  	23,914725  	21,707425  	21,778860  	73,185071  	0,018860  	0,009556  	-1440,695079  	-35502,861862  	-0,021690  	-0,049989  	0,316789  	0,160519  	-3,896445  	9121,926112  	3896,504824  	0,565140  	-0,047942  
111,574000  	12,274834  	48,295512  	357,499067  	657,183579  	80,281124  	74,506066  	0,004138  	0,008285  	0,003963  	0,004088  	0,004311  	-0,000000  	-0,000000  	22,415648  	17,916392  	19,724960  	24,618014  	35,671048  	33,033717  	35,077403  	38,141031  	48,750273  	46,294768  	50,329569  	68,991591  	23,927098  	21,728142  	21,790295  	73,189948  	0,077583  	0,039312  	-5926,831408  	7100,436566  	-0,021697  	-0,050002  	0,272469  	0,138062  	-3,343016  	9217,076911  	3900,833274  	0,565768  	-0,047953  
112,569000  	12,273243  	48,298049  	957,045375  	57,696365  	80,274875  	74,518417  	0,004141  	0,008273  	0,003963  	0,004013  	0,004343  	-0,000000  	-0,000000  	22,414148  	17,915890  	19,731673  	24,619161  	35,676075  	33,034046  	35,072302  	38,142000  	48,755353  	46,299804  	50,329438  	68,986947  	23,910340  	21,734780  	21,787939  	73,187777  	0,016812  	0,008519  	-1284,489578  	-21307,784379  	-0,021696  	-0,050003  	0,298216  	0,151108  	-3,647140  	9190,471984  	3975,024182  	0,576529  	-0,047954  
113,572000  	12,273212  	48,304021  	-242,047242  	1256,670793  	80,267908  	74,515735  	0,004140  	0,008239  	0,003963  	0,004029  	0,004337  	0,000001  	-0,000000  	22,415581  	17,914450  	19,724077  	24,616267  	35,679879  	33,027663  	35,076049  	38,142651  	48,750424  	46,291254  	50,324627  	68,980069  	23,895305  	21,742099  	21,782609  	73,186711  	0,030348  	0,015378  	-2319,031315  	35498,293733  	-0,021690  	-0,049983  	0,293023  	0,148477  	-3,580961  	9117,704781  	3944,541442  	0,572107  	-0,047937  
114,569000  	12,274926  	48,305197  	357,499067  	1256,670793  	80,265096  	74,513926  	0,004138  	0,008230  	0,003962  	0,004071  	0,004331  	0,000002  	-0,000000  	22,413793  	17,914066  	19,718114  	24,611364  	35,677876  	33,020984  	35,072600  	38,137153  	48,747503  	46,294121  	50,324896  	68,978904  	23,893586  	21,743190  	21,774521  	73,188339  	0,064038  	0,032448  	-4893,326242  	16222,278991  	-0,015667  	-0,049970  	0,288203  	0,146034  	-3,521432  	9097,814933  	3904,448554  	0,566292  	-0,047926  
115,574000  	12,282089  	48,306589  	1256,818530  	1256,670793  	80,263877  	74,508593  	0,004134  	0,008241  	0,003962  	0,004016  	0,004389  	-0,000000  	-0,000000  	22,413701  	17,912971  	19,717120  	24,609765  	35,678266  	33,024024  	35,069959  	38,137898  	48,746832  	46,295268  	50,329359  	68,986663  	23,895188  	21,742907  	21,776404  	73,190080  	0,019938  	0,010103  	-1523,283759  	-1,993723  	-0,011069  	-0,050005  	0,334180  	0,169331  	-4,086126  	9121,688411  	3805,508515  	0,551942  	-0,047955  
116,570000  	12,289069  	48,304609  	1256,818530  	57,696365  	80,267127  	74,502480  	0,004138  	0,008240  	0,003964  	0,004022  	0,004367  	-0,000001  	-0,000000  	22,415428  	17,909655  	19,717421  	24,611873  	35,679275  	33,030258  	35,067042  	38,139032  	48,756432  	46,291507  	50,327749  	68,987286  	23,893836  	21,744069  	21,776344  	73,184061  	0,024526  	0,012428  	-1873,343125  	-24497,108475  	-0,018203  	-0,050008  	0,316758  	0,160504  	-3,879401  	9120,109391  	3892,868361  	0,564613  	-0,047959  
117,573000  	12,292008  	48,302319  	1256,818530  	57,696365  	80,271095  	74,488133  	0,004137  	0,008297  	0,003965  	0,004069  	0,004318  	0,000001  	-0,000001  	22,418486  	17,912845  	19,722447  	24,613712  	35,680930  	33,032398  	35,067121  	38,140966  	48,757039  	46,295781  	50,327846  	68,984759  	23,892282  	21,741218  	21,776028  	73,183487  	0,062784  	0,031813  	-4794,896431  	-24487,812021  	-0,018196  	-0,049987  	0,277732  	0,140729  	-3,412245  	9241,439941  	3885,334175  	0,563520  	-0,047940  
118,572000  	12,290171  	48,306465  	1256,818530  	1256,670793  	80,273469  	74,488757  	0,004138  	0,008217  	0,003962  	0,004095  	0,004326  	0,000001  	-0,000000  	22,427857  	17,919467  	19,724876  	24,616130  	35,685077  	33,032117  	35,075724  	38,142261  	48,755721  	46,300000  	50,334381  	68,986299  	23,900077  	21,738700  	21,780506  	73,188785  	0,083350  	0,042234  	-6366,586921  	-1,993142  	-0,011066  	-0,049988  	0,284829  	0,144325  	-3,500500  	9070,615044  	3890,961866  	0,564336  	-0,047941  
119,574000  	12,289987  	48,311385  	1256,818530  	1256,670793  	80,270813  	74,511057  	0,004139  	0,008212  	0,003964  	0,004019  	0,004387  	0,000001  	-0,000000  	22,425988  	17,921295  	19,723688  	24,617200  	35,686291  	33,032079  	35,084149  	38,143217  	48,760526  	46,301076  	50,333950  	68,989346  	23,908280  	21,740489  	21,782859  	73,190112  	0,021917  	0,011106  	-1674,338045  	-1,993202  	-0,011066  	-0,049990  	0,332510  	0,168485  	-4,068874  	9059,677927  	3928,322111  	0,569755  	-0,047943  
120,570000  	12,291212  	48,310023  	1256,818530  	1256,670793  	80,268251  	74,514612  	0,004140  	0,008268  	0,003963  	0,004054  	0,004343  	0,000001  	-0,000000  	22,412176  	17,917567  	19,727216  	24,619125  	35,685292  	33,032633  	35,084446  	38,145592  	48,756177  	46,305173  	50,334908  	68,989795  	23,905806  	21,745080  	21,784081  	73,191062  	0,050242  	0,025458  	-3837,950573  	-1,993257  	-0,011067  	-0,049992  	0,298298  	0,151150  	-3,646349  	9178,923633  	3942,331320  	0,571787  	-0,047944  
121,570000  	12,290048  	48,303247  	957,045375  	1256,670793  	80,269532  	74,505380  	0,004137  	0,008267  	0,003960  	0,004023  	0,004382  	0,000002  	-0,000000  	22,411223  	17,913603  	19,724833  	24,618691  	35,684259  	33,031360  	35,074813  	38,140488  	48,752173  	46,305670  	50,339884  	68,985276  	23,896158  	21,749070  	21,780077  	73,189310  	0,025393  	0,012867  	-1939,473411  	4415,134632  	-0,012266  	-0,049979  	0,328802  	0,166606  	-4,026560  	9178,190012  	3868,726483  	0,561111  	-0,047934  
122,571000  	12,288518  	48,293779  	357,499067  	1256,670793  	80,272344  	74,498394  	0,004135  	0,008281  	0,003963  	0,004091  	0,004305  	0,000000  	-0,000000  	22,415395  	17,917939  	19,717599  	24,614441  	35,681369  	33,027652  	35,066067  	38,142124  	48,758422  	46,303819  	50,331723  	68,986635  	23,883226  	21,751882  	21,774894  	73,189237  	0,080387  	0,040733  	-6138,395203  	16229,271484  	-0,015674  	-0,049994  	0,268192  	0,135895  	-3,289907  	9206,691602  	3827,750959  	0,555168  	-0,047946  
123,572000  	12,286865  	48,285332  	1256,818530  	1256,670793  	80,273907  	74,489193  	0,004134  	0,008262  	0,003962  	0,004118  	0,004322  	0,000000  	-0,000000  	22,419855  	17,920773  	19,722252  	24,623310  	35,681423  	33,029734  	35,073108  	38,156851  	48,764439  	46,304905  	50,331399  	68,991462  	23,880632  	21,759896  	21,783296  	73,196004  	0,101953  	0,051660  	-7783,660200  	-1,993336  	-0,011067  	-0,049994  	0,281185  	0,142479  	-3,455718  	9167,069666  	3819,341196  	0,553949  	-0,047946  
124,570000  	12,285334  	48,282238  	1256,818530  	57,696365  	80,279218  	74,490004  	0,004139  	0,008221  	0,003962  	0,004040  	0,004379  	0,000001  	-0,000000  	22,421681  	17,920768  	19,718254  	24,617890  	35,680662  	33,040442  	35,082534  	38,155709  	48,754253  	46,304966  	50,335039  	68,989218  	23,883970  	21,765349  	21,781866  	73,189089  	0,039019  	0,019771  	-2978,785045  	-24489,693553  	-0,018197  	-0,049991  	0,326338  	0,165358  	-4,013758  	9078,165617  	3928,682226  	0,569807  	-0,047944  
125,571000  	12,281508  	48,293625  	57,725912  	956,927186  	80,278781  	74,508062  	0,004138  	0,008232  	0,003961  	0,004022  	0,004405  	0,000001  	-0,000000  	22,417600  	17,924776  	19,727930  	24,617760  	35,683804  	33,045100  	35,091588  	38,156866  	48,761617  	46,312569  	50,346660  	68,988784  	23,891419  	21,784795  	21,787432  	73,190454  	0,024615  	0,012472  	-1879,944178  	21301,510502  	-0,021693  	-0,049993  	0,347367  	0,176013  	-4,258757  	9101,113754  	3902,683281  	0,566036  	-0,047945  
126,572000  	12,279855  	48,302907  	1256,818530  	-242,047242  	80,276219  	74,505817  	0,004140  	0,008294  	0,003962  	0,004037  	0,004349  	0,000001  	-0,000000  	22,432665  	17,923003  	19,725316  	24,630736  	35,690142  	33,053790  	35,087650  	38,145364  	48,768357  	46,311572  	50,351504  	68,989255  	23,879529  	21,810782  	21,783070  	73,183121  	0,036860  	0,018677  	-2816,015563  	-35505,259389  	-0,021692  	-0,049993  	0,302984  	0,153524  	-3,714417  	9236,453153  	3947,323513  	0,572511  	-0,047946  
127,572000  	12,280406  	48,302721  	357,499067  	657,183579  	80,274219  	74,498643  	0,004137  	0,008177  	0,003963  	0,004038  	0,004315  	0,000001  	-0,000000  	22,417185  	17,913563  	19,717391  	24,622873  	35,679264  	33,040907  	35,074215  	38,144462  	48,757948  	46,310079  	50,346733  	68,985490  	23,865227  	21,820770  	21,776264  	73,185291  	0,037774  	0,019140  	-2885,758571  	7099,201703  	-0,021693  	-0,049992  	0,275411  	0,139553  	-3,379405  	8982,289686  	3878,774419  	0,562569  	-0,047945  
128,574000  	12,284018  	48,297152  	957,045375  	1256,670793  	80,275031  	74,500265  	0,004137  	0,008235  	0,003963  	0,004057  	0,004341  	0,000001  	-0,000000  	22,428946  	17,914953  	19,735703  	24,619510  	35,684705  	33,042901  	35,086076  	38,151531  	48,767920  	46,321734  	50,348789  	68,996466  	23,871672  	21,850672  	21,794731  	73,187974  	0,053065  	0,026888  	-4052,927707  	4416,135995  	-0,012269  	-0,049992  	0,296183  	0,150078  	-3,633785  	9108,785300  	3885,447152  	0,563536  	-0,047945  
129,571000  	12,286314  	48,288148  	57,725912  	956,927186  	80,277281  	74,498051  	0,004139  	0,008239  	0,003963  	0,004051  	0,004396  	0,000000  	-0,000001  	22,420025  	17,929539  	19,720247  	24,630783  	35,686024  	33,041540  	35,084918  	38,155381  	48,760334  	46,317013  	50,345775  	68,998741  	23,878331  	21,863108  	21,780871  	73,181342  	0,048113  	0,024379  	-3673,577859  	21303,769540  	-0,021696  	-0,049998  	0,339706  	0,172131  	-4,170973  	9115,989932  	3924,466754  	0,569196  	-0,047950  
130,574000  	12,285334  	48,284930  	1256,818530  	-242,047242  	80,277719  	74,484452  	0,004137  	0,008231  	0,003961  	0,004050  	0,004358  	0,000000  	-0,000000  	22,415797  	17,926632  	19,728743  	24,627060  	35,688258  	33,044825  	35,087978  	38,153017  	48,763628  	46,314448  	50,354656  	69,005403  	23,876558  	21,877097  	21,791974  	73,196594  	0,046794  	0,023711  	-3572,619522  	-35508,153584  	-0,021694  	-0,049998  	0,310150  	0,157156  	-3,817326  	9098,946847  	3887,071204  	0,563772  	-0,047949  
131,570000  	12,283222  	48,283909  	1256,818530  	-242,047242  	80,271563  	74,485606  	0,004141  	0,008217  	0,003965  	0,004051  	0,004355  	0,000001  	-0,000000  	22,414512  	17,921165  	19,725211  	24,620313  	35,685919  	33,055914  	35,084652  	38,154329  	48,770124  	46,311904  	50,349238  	68,991521  	23,875862  	21,889353  	21,786188  	73,196815  	0,048048  	0,024346  	-3668,452008  	-35503,257116  	-0,021691  	-0,049990  	0,307552  	0,155839  	-3,780564  	9069,259577  	3966,317854  	0,575266  	-0,047943  
132,574000  	12,284263  	48,284961  	1256,818530  	956,927186  	80,262127  	74,483673  	0,004137  	0,008225  	0,003962  	0,004034  	0,004363  	-0,000000  	-0,000000  	22,420848  	17,920841  	19,739136  	24,615793  	35,684954  	33,042629  	35,085430  	38,147679  	48,768953  	46,310947  	50,343790  	68,992993  	23,868736  	21,902865  	21,787709  	73,198716  	0,034499  	0,017481  	-2633,996865  	-4421,030806  	-0,012271  	-0,050005  	0,314069  	0,159141  	-3,855676  	9086,645066  	3888,321017  	0,563953  	-0,047956  
133,572000  	12,283987  	48,282084  	57,725912  	57,696365  	80,260409  	74,487228  	0,004135  	0,008245  	0,003962  	0,004081  	0,004359  	0,000002  	-0,000001  	22,414752  	17,913804  	19,725686  	24,609489  	35,677811  	33,028829  	35,068037  	38,143040  	48,763332  	46,306575  	50,335010  	68,981685  	23,866272  	21,904661  	21,775812  	73,201223  	0,071896  	0,036430  	-5488,906792  	-1,524433  	-0,051160  	-0,049978  	0,310832  	0,157501  	-3,812456  	9130,870354  	3843,363036  	0,557433  	-0,047933  
134,573000  	12,284661  	48,272183  	1256,818530  	1256,670793  	80,266970  	74,475688  	0,004133  	0,008240  	0,003963  	0,004011  	0,004382  	0,000001  	-0,000000  	22,417179  	17,922515  	19,729399  	24,615494  	35,672007  	33,030224  	35,069667  	38,151922  	48,764277  	46,311812  	50,341771  	68,981838  	23,856492  	21,908595  	21,773713  	73,194503  	0,015815  	0,008014  	-1207,057836  	-1,993124  	-0,011066  	-0,049988  	0,329124  	0,166769  	-4,049455  	9118,388882  	3784,275807  	0,548863  	-0,047941  
135,570000  	12,281538  	48,262343  	1256,818530  	1256,670793  	80,269282  	74,468858  	0,004139  	0,008234  	0,003963  	0,004055  	0,004322  	0,000000  	-0,000000  	22,425410  	17,925402  	19,725156  	24,610328  	35,677581  	33,036012  	35,075718  	38,150074  	48,759870  	46,320894  	50,338880  	68,992401  	23,858548  	21,926086  	21,783933  	73,196066  	0,050876  	0,025779  	-3882,278149  	-1,993485  	-0,011068  	-0,049998  	0,281209  	0,142490  	-3,465377  	9106,485393  	3922,270754  	0,568877  	-0,047950  
136,573000  	12,276579  	48,253804  	57,725912  	1256,670793  	80,268720  	74,475782  	0,004137  	0,008227  	0,003962  	0,004054  	0,004329  	0,000002  	-0,000000  	22,418578  	17,919584  	19,716701  	24,612394  	35,670273  	33,033935  	35,071306  	38,138262  	48,751123  	46,306808  	50,338097  	68,989154  	23,861922  	21,928541  	21,783465  	73,192211  	0,050154  	0,025413  	-3826,776337  	24480,772002  	-0,018193  	-0,049976  	0,286656  	0,145251  	-3,527947  	9090,301855  	3868,288695  	0,561048  	-0,047931  
137,572000  	12,271773  	48,245945  	1256,818530  	1256,670793  	80,275281  	74,487883  	0,004142  	0,008250  	0,003964  	0,004049  	0,004343  	0,000001  	-0,000001  	22,412647  	17,916480  	19,718159  	24,616346  	35,676641  	33,040653  	35,069256  	38,135275  	48,761507  	46,307353  	50,333508  	68,985174  	23,861955  	21,932792  	21,778158  	73,191518  	0,046552  	0,023588  	-3551,637093  	-1,993199  	-0,011066  	-0,049990  	0,297727  	0,150860  	-3,660707  	9139,992165  	3990,127860  	0,578719  	-0,047943  
138,572000  	12,271590  	48,240128  	1256,818530  	1256,670793  	80,271532  	74,489256  	0,004137  	0,008226  	0,003962  	0,004057  	0,004348  	0,000002  	-0,000000  	22,422125  	17,921873  	19,724142  	24,623578  	35,677605  	33,041907  	35,069246  	38,139408  	48,765008  	46,308363  	50,346852  	68,984658  	23,865413  	21,939698  	21,776349  	73,200830  	0,052458  	0,026581  	-4001,586248  	-1,992757  	-0,011064  	-0,049977  	0,302071  	0,153062  	-3,710835  	9087,993458  	3888,928271  	0,564041  	-0,047932  
139,570000  	12,271498  	48,239478  	357,499067  	357,439972  	80,264908  	74,487104  	0,004134  	0,008209  	0,003964  	0,004003  	0,004386  	0,000001  	-0,000000  	22,415890  	17,909784  	19,715965  	24,614383  	35,674908  	33,032116  	35,068686  	38,141183  	48,755013  	46,300196  	50,338265  	68,983347  	23,860643  	21,941137  	21,774892  	73,198553  	0,008923  	0,004521  	-680,637463  	-1,685026  	-0,026848  	-0,049993  	0,331677  	0,168063  	-4,071385  	9052,609832  	3822,575177  	0,554418  	-0,047945  
140,571000  	12,269784  	48,239664  	957,045375  	-242,047242  	80,264408  	74,495462  	0,004134  	0,008224  	0,003964  	0,004025  	0,004332  	0,000001  	-0,000001  	22,414535  	17,901815  	19,712784  	24,613579  	35,673162  	33,024036  	35,071149  	38,138712  	48,746130  	46,291442  	50,335480  	68,988894  	23,858976  	21,947238  	21,777885  	73,195576  	0,026797  	0,013578  	-2044,238214  	-34187,839573  	-0,026846  	-0,049990  	0,289398  	0,146640  	-3,546957  	9085,228759  	3814,221904  	0,553206  	-0,047943  
141,578000  	12,269233  	48,235673  	1256,818530  	-242,047242  	80,265658  	74,488757  	0,004136  	0,008235  	0,003961  	0,004060  	0,004366  	0,000001  	-0,000000  	22,409393  	17,901082  	19,715100  	24,614721  	35,670019  	33,025620  	35,068947  	38,133087  	48,747574  	46,296826  	50,334311  	68,996008  	23,863681  	21,947095  	21,780878  	73,197720  	0,055327  	0,028034  	-4220,199865  	-35503,977414  	-0,021691  	-0,049991  	0,315905  	0,160071  	-3,877173  	9107,341403  	3854,201814  	0,559005  	-0,047944  
142,571000  	12,271743  	48,233012  	1256,818530  	357,439972  	80,272407  	74,485513  	0,004141  	0,008273  	0,003965  	0,004037  	0,004344  	0,000001  	-0,000000  	22,402393  	17,898659  	19,716618  	24,606026  	35,663404  	33,016216  	35,062558  	38,127271  	48,745747  	46,296625  	50,326863  	68,987509  	23,866866  	21,939405  	21,776981  	73,194093  	0,036610  	0,018551  	-2792,162396  	-16229,266730  	-0,015670  	-0,049983  	0,298769  	0,151389  	-3,673203  	9190,537069  	3962,985018  	0,574782  	-0,047937  
143,574000  	12,276059  	48,233754  	357,499067  	357,439972  	80,277719  	74,485513  	0,004139  	0,008255  	0,003961  	0,004096  	0,004368  	0,000002  	-0,000000  	22,405170  	17,899293  	19,716060  	24,600653  	35,663147  	33,012602  	35,055798  	38,123797  	48,745791  	46,292378  	50,326093  	68,977092  	23,865968  	21,936192  	21,768864  	73,188559  	0,084754  	0,042945  	-6463,255919  	-1,684519  	-0,026840  	-0,049976  	0,318092  	0,161180  	-3,914353  	9152,022286  	3919,975898  	0,568544  	-0,047931  
144,570000  	12,277773  	48,242108  	957,045375  	956,927186  	80,275594  	74,487322  	0,004140  	0,008212  	0,003963  	0,004011  	0,004343  	-0,000001  	-0,000000  	22,409153  	17,904182  	19,720737  	24,603094  	35,669289  	33,020391  	35,061818  	38,122817  	48,748289  	46,292817  	50,330408  	68,981802  	23,870826  	21,937728  	21,767291  	73,188327  	0,015665  	0,007938  	-1194,852242  	-1,917299  	-0,013767  	-0,050006  	0,298283  	0,151142  	-3,668095  	9058,011183  	3950,663410  	0,572995  	-0,047957  
145,573000  	12,276885  	48,246007  	1256,818530  	57,696365  	80,274906  	74,481583  	0,004136  	0,008233  	0,003962  	0,004029  	0,004352  	-0,000000  	-0,000000  	22,404789  	17,907822  	19,723692  	24,605003  	35,667041  	33,023579  	35,067357  	38,120501  	48,747953  	46,292146  	50,333939  	68,988924  	23,879196  	21,936473  	21,773474  	73,185018  	0,029912  	0,015157  	-2281,801904  	-24494,683469  	-0,018201  	-0,050003  	0,305170  	0,154632  	-3,756064  	9105,115777  	3851,673943  	0,558638  	-0,047954  
146,571000  	12,275110  	48,238767  	657,272221  	657,183579  	80,275656  	74,484265  	0,004134  	0,008293  	0,003964  	0,004019  	0,004370  	-0,000000  	-0,000000  	22,401660  	17,907986  	19,722166  	24,604406  	35,658759  	33,021580  	35,068250  	38,119620  	48,747550  	46,290782  	50,333640  	68,990329  	23,881421  	21,926008  	21,773853  	73,182108  	0,021678  	0,010984  	-1653,399769  	-1,810841  	-0,018202  	-0,050005  	0,319384  	0,161834  	-3,929699  	9232,632237  	3813,508733  	0,553103  	-0,047956  
147,572000  	12,274375  	48,234497  	657,272221  	657,183579  	80,274375  	74,483298  	0,004139  	0,008234  	0,003964  	0,004020  	0,004366  	0,000001  	-0,000000  	22,405537  	17,908954  	19,728046  	24,604917  	35,657813  	33,018414  	35,075262  	38,123925  	48,751438  	46,294189  	50,330589  	68,988295  	23,881290  	21,918217  	21,773445  	73,183592  	0,022822  	0,011564  	-1740,504994  	-1,810376  	-0,018198  	-0,049991  	0,315967  	0,160103  	-3,887447  	9106,518643  	3911,142471  	0,567263  	-0,047944  
148,571000  	12,276641  	48,241242  	1256,818530  	57,696365  	80,277312  	74,488663  	0,004143  	0,008234  	0,003963  	0,004055  	0,004405  	-0,000000  	-0,000000  	22,407391  	17,911780  	19,729647  	24,608062  	35,662752  	33,019443  	35,066858  	38,126958  	48,756180  	46,298867  	50,333950  	68,982746  	23,881626  	21,922476  	21,782220  	73,179550  	0,051311  	0,026000  	-3913,684750  	-24493,539124  	-0,018200  	-0,050000  	0,346997  	0,175826  	-4,267431  	9106,376446  	4011,282896  	0,581787  	-0,047952  
149,571000  	12,278906  	48,251762  	1256,818530  	956,927186  	80,276000  	74,494277  	0,004140  	0,008217  	0,003962  	0,004011  	0,004387  	0,000001  	-0,000000  	22,408700  	17,912017  	19,726606  	24,611651  	35,668834  	33,021976  	35,065794  	38,131285  	48,748752  	46,298304  	50,337312  	68,986986  	23,883210  	21,919955  	21,784593  	73,184209  	0,015895  	0,008054  	-1212,667808  	-4419,641069  	-0,012268  	-0,049987  	0,333030  	0,168749  	-4,090772  	9069,531236  	3946,334960  	0,572367  	-0,047941  
150,574000  	12,282089  	48,252009  	1256,818530  	357,439972  	80,267564  	74,494589  	0,004140  	0,008248  	0,003964  	0,004030  	0,004314  	0,000000  	-0,000001  	22,409657  	17,917155  	19,731132  	24,613499  	35,672910  	33,026384  	35,076171  	38,136665  	48,755223  	46,304733  	50,340767  	68,993262  	23,887854  	21,930880  	21,793243  	73,191449  	0,031053  	0,015735  	-2368,878785  	-16232,496771  	-0,015673  	-0,049994  	0,275208  	0,139450  	-3,375399  	9136,107578  	3937,374432  	0,571068  	-0,047946  
151,574000  	12,284661  	48,247925  	357,499067  	357,439972  	80,263721  	74,486636  	0,004135  	0,008224  	0,003964  	0,004039  	0,004336  	-0,000000  	-0,000001  	22,409361  	17,907965  	19,724864  	24,603170  	35,681010  	33,017851  	35,072251  	38,133892  	48,752709  	46,296449  	50,333480  	68,996035  	23,896541  	21,943838  	21,785439  	73,189959  	0,038355  	0,019435  	-2925,342712  	-1,685273  	-0,026852  	-0,050001  	0,292043  	0,147980  	-3,584424  	9084,178201  	3825,908013  	0,554901  	-0,047952  
152,571000  	12,285518  	48,240994  	-242,047242  	-242,047242  	80,270782  	74,482831  	0,004136  	0,008400  	0,003962  	0,004004  	0,004339  	0,000001  	-0,000000  	22,396351  	17,908718  	19,711070  	24,601987  	35,669720  	33,022183  	35,070945  	38,126090  	48,749528  	46,290872  	50,327698  	68,984030  	23,900267  	21,973992  	21,778624  	73,177531  	0,009810  	0,004971  	-748,085420  	-0,000000  	-0,544368  	-0,049993  	0,294778  	0,149366  	-3,624791  	9464,201290  	3851,144361  	0,558561  	-0,047946  
153,570000  	12,283589  	48,234744  	1256,818530  	57,696365  	80,277219  	74,480959  	0,004142  	0,008502  	0,003963  	0,004056  	0,004340  	0,000000  	-0,000000  	22,410693  	17,916737  	19,730751  	24,618095  	35,680701  	33,027016  	35,083501  	38,134832  	48,755430  	46,304063  	50,344532  	69,000651  	23,914112  	21,999406  	21,784362  	73,195513  	0,051959  	0,026328  	-3961,603807  	-24492,669207  	-0,018199  	-0,049998  	0,295703  	0,149835  	-3,641381  	9684,289907  	3992,281494  	0,579031  	-0,047950  
154,570000  	12,284753  	48,235363  	1256,818530  	1256,670793  	80,277469  	74,486012  	0,004141  	0,008376  	0,003961  	0,004042  	0,004339  	0,000001  	-0,000000  	22,402068  	17,915024  	19,723460  	24,606848  	35,663670  	33,026846  	35,074740  	38,136012  	48,755859  	46,302881  	50,338411  	68,993253  	23,915902  	21,995501  	21,784805  	73,187492  	0,040470  	0,020506  	-3085,594982  	-1,993264  	-0,011067  	-0,049992  	0,294856  	0,149406  	-3,627950  	9412,054020  	3969,001069  	0,575655  	-0,047944  
155,570000  	12,288151  	48,239633  	1256,818530  	1256,670793  	80,279656  	74,514051  	0,004142  	0,008142  	0,003964  	0,004041  	0,004317  	0,000001  	-0,000000  	22,403556  	17,909583  	19,724356  	24,610610  	35,662589  	33,022477  	35,064073  	38,126776  	48,747362  	46,287290  	50,340775  	68,987583  	23,903377  	21,992474  	21,787292  	73,185844  	0,039902  	0,020219  	-3042,359176  	-1,993324  	-0,011067  	-0,049993  	0,277141  	0,140430  	-3,394780  	8908,177628  	3983,342150  	0,577735  	-0,047946  
156,574000  	12,294395  	48,240747  	57,725912  	1256,670793  	80,279343  	74,533575  	0,004138  	0,008216  	0,003962  	0,004052  	0,004324  	0,000001  	-0,000000  	22,407340  	17,916055  	19,731331  	24,610024  	35,677792  	33,022488  	35,064084  	38,132322  	48,753727  	46,293667  	50,330257  	68,987464  	23,890842  	21,983692  	21,778064  	73,183361  	0,048741  	0,024697  	-3715,752481  	24485,517532  	-0,018197  	-0,049987  	0,282761  	0,143277  	-3,451716  	9067,390504  	3906,891692  	0,566647  	-0,047940  
157,570000  	12,295497  	48,237622  	957,045375  	57,696365  	80,281093  	74,533638  	0,004136  	0,008239  	0,003964  	0,004036  	0,004333  	0,000001  	-0,000000  	22,400852  	17,911167  	19,724180  	24,612826  	35,675084  	33,025221  	35,066355  	38,128253  	48,750145  	46,288721  	50,336914  	68,985562  	23,891420  	21,976639  	21,770778  	73,173629  	0,035730  	0,018105  	-2723,573587  	-21300,290310  	-0,021688  	-0,049983  	0,289650  	0,146768  	-3,536842  	9116,524761  	3863,338869  	0,560330  	-0,047937  
158,575000  	12,292130  	48,227659  	357,499067  	1256,670793  	80,288279  	74,509809  	0,004139  	0,008234  	0,003963  	0,004055  	0,004350  	-0,000000  	-0,000000  	22,401850  	17,906821  	19,716872  	24,602448  	35,662841  	33,013682  	35,059444  	38,126973  	48,745841  	46,292447  	50,331691  	68,984678  	23,898488  	21,969509  	21,774528  	73,186923  	0,051031  	0,025858  	-3889,171767  	16231,390746  	-0,015676  	-0,050001  	0,303206  	0,153637  	-3,722343  	9105,925803  	3921,140979  	0,568713  	-0,047952  
159,571000  	12,288273  	48,214943  	1256,818530  	357,439972  	80,296466  	74,511556  	0,004140  	0,008239  	0,003963  	0,004085  	0,004337  	0,000001  	-0,000000  	22,399519  	17,896786  	19,712782  	24,586783  	35,659861  	33,013169  	35,057023  	38,119634  	48,740724  	46,275789  	50,326623  	68,965618  	23,883199  	21,948707  	21,760561  	73,176697  	0,075354  	0,038183  	-5741,494520  	-16229,782680  	-0,015671  	-0,049985  	0,293357  	0,148646  	-3,605434  	9116,216315  	3934,542934  	0,570657  	-0,047938  
160,574000  	12,285151  	48,206032  	1256,818530  	-242,047242  	80,298778  	74,501014  	0,004139  	0,008223  	0,003962  	0,004004  	0,004399  	0,000001  	-0,000000  	22,397796  	17,908499  	19,716224  	24,600991  	35,666779  	33,013881  	35,063984  	38,122508  	48,749338  	46,279802  	50,328217  	68,985270  	23,891221  	21,948379  	21,779517  	73,172442  	0,009834  	0,004983  	-749,167002  	-35505,431012  	-0,021692  	-0,049993  	0,341992  	0,173290  	-4,212510  	9081,697188  	3913,176065  	0,567558  	-0,047946  
161,572000  	12,284263  	48,198854  	957,045375  	57,696365  	80,295060  	74,488445  	0,004142  	0,008236  	0,003963  	0,004064  	0,004324  	0,000002  	-0,000000  	22,399355  	17,907501  	19,718197  	24,596421  	35,655953  	33,008227  	35,054995  	38,112363  	48,735296  	46,282353  	50,325431  	68,987771  	23,894797  	21,938057  	21,768638  	73,176848  	0,058597  	0,029691  	-4463,173819  	-21298,094982  	-0,021686  	-0,049977  	0,282703  	0,143248  	-3,487519  	9111,242261  	3983,299783  	0,577729  	-0,047932  
162,571000  	12,286283  	48,196069  	-242,047242  	657,183579  	80,285436  	74,487571  	0,004140  	0,008233  	0,003962  	0,004048  	0,004350  	0,000001  	-0,000000  	22,401262  	17,901321  	19,719651  	24,599271  	35,662538  	33,012899  	35,055016  	38,117147  	48,748531  	46,289457  	50,326580  	68,992994  	23,896823  	21,936163  	21,767262  	73,178954  	0,045271  	0,022939  	-3447,708137  	32737,789552  	-0,035219  	-0,049990  	0,303343  	0,153706  	-3,736503  	9103,166763  	3936,138741  	0,570889  	-0,047943  
163,571000  	12,290048  	48,193749  	657,272221  	657,183579  	80,277125  	74,485606  	0,004135  	0,008232  	0,003962  	0,004063  	0,004360  	0,000000  	-0,000000  	22,406083  	17,898706  	19,711703  	24,597006  	35,652805  	33,010026  	35,055183  	38,115420  	48,737495  	46,287055  	50,319131  	68,986159  	23,889330  	21,928287  	21,773903  	73,163611  	0,057716  	0,029245  	-4394,734404  	-1,810564  	-0,018200  	-0,049997  	0,311743  	0,157962  	-3,835764  	9102,074466  	3834,642586  	0,556168  	-0,047949  
164,574000  	12,290048  	48,183972  	57,725912  	1256,670793  	80,272313  	74,487478  	0,004137  	0,008250  	0,003963  	0,004088  	0,004329  	0,000001  	-0,000000  	22,396063  	17,907418  	19,726068  	24,596911  	35,654082  	33,007082  	35,057619  	38,118717  	48,738053  	46,282454  	50,325984  	68,979473  	23,884762  	21,934036  	21,777487  	73,165037  	0,077680  	0,039361  	-5913,284611  	24485,533674  	-0,018197  	-0,049987  	0,286956  	0,145403  	-3,526713  	9139,796909  	3884,522149  	0,563402  	-0,047941  
165,570000  	12,287783  	48,173081  	1256,818530  	1256,670793  	80,267189  	74,484827  	0,004140  	0,008225  	0,003963  	0,004080  	0,004334  	0,000000  	-0,000000  	22,392602  	17,901837  	19,716971  	24,597969  	35,657969  	33,002145  	35,050872  	38,113044  	48,732808  	46,270456  	50,316775  	68,983097  	23,887927  	21,935245  	21,774060  	73,175166  	0,071142  	0,036048  	-5414,281053  	-1,993467  	-0,011068  	-0,049997  	0,290481  	0,147189  	-3,568509  	9086,632332  	3941,371011  	0,571648  	-0,047949  
166,571000  	12,286130  	48,170791  	657,272221  	1256,670793  	80,268376  	74,481084  	0,004141  	0,008238  	0,003962  	0,004004  	0,004336  	0,000000  	-0,000000  	22,402466  	17,907727  	19,718778  	24,607742  	35,660042  	33,007809  	35,057110  	38,116425  	48,736305  	46,276711  	50,319459  	68,994213  	23,892668  	21,949024  	21,781105  	73,183269  	0,009845  	0,004989  	-749,260703  	9722,062165  	-0,013765  	-0,049997  	0,292143  	0,148031  	-3,591980  	9115,648235  	3972,602227  	0,576177  	-0,047949  
167,571000  	12,289069  	48,167914  	657,272221  	1256,670793  	80,270407  	74,485014  	0,004142  	0,008231  	0,003965  	0,004066  	0,004364  	0,000000  	-0,000001  	22,393897  	17,899961  	19,709732  	24,595579  	35,651622  	33,001714  	35,054591  	38,110402  	48,728517  	46,269452  	50,318329  	68,995913  	23,881731  	21,955831  	21,773978  	73,174711  	0,060447  	0,030629  	-4599,532977  	9721,793037  	-0,013764  	-0,049996  	0,314704  	0,159463  	-3,868104  	9100,373058  	3991,010497  	0,578847  	-0,047948  
168,572000  	12,291334  	48,169770  	57,725912  	1256,670793  	80,268533  	74,478776  	0,004135  	0,008241  	0,003964  	0,004063  	0,004330  	-0,000000  	-0,000000  	22,398116  	17,900837  	19,710473  	24,592938  	35,651548  	33,006808  	35,055216  	38,111823  	48,728155  	46,268456  	50,318321  	68,995528  	23,889499  	21,963761  	21,778541  	73,176940  	0,057501  	0,029136  	-4375,286711  	24491,297897  	-0,018201  	-0,050000  	0,288001  	0,145932  	-3,542555  	9120,963986  	3845,650830  	0,557764  	-0,047952  
169,574000  	12,287875  	48,160952  	1256,818530  	-242,047242  	80,266470  	74,480897  	0,004135  	0,008233  	0,003963  	0,004039  	0,004319  	0,000000  	-0,000000  	22,401525  	17,899589  	19,712627  	24,589370  	35,644755  	33,004057  	35,051071  	38,105465  	48,722393  	46,266594  	50,307931  	68,992877  	23,893718  	21,963611  	21,778096  	73,176653  	0,038459  	0,019487  	-2925,928816  	-35505,724853  	-0,021692  	-0,049994  	0,278981  	0,141362  	-3,429137  	9104,634006  	3845,071820  	0,557681  	-0,047946  
170,570000  	12,284140  	48,163675  	1256,818530  	357,439972  	80,267408  	74,484452  	0,004139  	0,008237  	0,003963  	0,004032  	0,004333  	0,000001  	-0,000000  	22,388877  	17,891905  	19,705090  	24,577103  	35,633492  	32,994500  	35,041314  	38,089414  	48,713203  	46,251305  	50,298534  	68,987100  	23,882108  	21,958087  	21,766908  	73,162286  	0,032463  	0,016449  	-2470,234117  	-16231,694313  	-0,015673  	-0,049991  	0,289884  	0,146886  	-3,561535  	9113,523775  	3929,317725  	0,569899  	-0,047944  
171,572000  	12,281294  	48,170172  	1256,818530  	1256,670793  	80,270095  	74,475626  	0,004141  	0,008229  	0,003962  	0,004058  	0,004320  	0,000002  	-0,000000  	22,389168  	17,897600  	19,710992  	24,580488  	35,636632  	32,997682  	35,044947  	38,090524  	48,717565  	46,250452  	50,305311  	68,987152  	23,880361  	21,969159  	21,768581  	73,159922  	0,053345  	0,027030  	-4060,279298  	-1,992872  	-0,011065  	-0,049981  	0,279733  	0,141743  	-3,443654  	9094,538750  	3959,334432  	0,574253  	-0,047935  
172,570000  	12,280436  	48,174504  	1256,818530  	57,696365  	80,271157  	74,483423  	0,004142  	0,008226  	0,003963  	0,004044  	0,004361  	0,000000  	-0,000000  	22,401930  	17,903987  	19,717640  	24,592332  	35,646124  	33,000649  	35,047542  	38,095347  	48,724299  	46,261832  	50,309795  	68,989594  	23,879186  	21,981175  	21,773881  	73,168754  	0,042406  	0,021488  	-3228,160609  	-24491,763417  	-0,018199  	-0,049996  	0,312461  	0,158326  	-3,842094  	9088,619548  	3990,247899  	0,578737  	-0,047948  
173,573000  	12,281416  	48,166645  	57,725912  	1256,670793  	80,274000  	74,485357  	0,004139  	0,008243  	0,003964  	0,004039  	0,004340  	0,000002  	-0,000000  	22,405259  	17,904126  	19,717116  	24,597486  	35,650513  	33,004934  	35,045567  	38,092863  	48,728938  	46,264226  	50,309332  	68,992467  	23,874529  	21,979008  	21,780651  	73,176592  	0,038435  	0,019475  	-2925,082496  	24481,177327  	-0,018194  	-0,049977  	0,295892  	0,149931  	-3,638931  	9125,553189  	3929,282419  	0,569894  	-0,047932  
174,572000  	12,281294  	48,167759  	1256,818530  	1256,670793  	80,280124  	74,495587  	0,004136  	0,008223  	0,003964  	0,004054  	0,004344  	-0,000000  	-0,000000  	22,397120  	17,900337  	19,717267  	24,589883  	35,644085  	32,997900  	35,045932  	38,090460  	48,723303  	46,257059  	50,304234  	68,995145  	23,873967  	21,973190  	21,782975  	73,176191  	0,050654  	0,025667  	-3855,215241  	-1,993639  	-0,011069  	-0,050002  	0,298604  	0,151305  	-3,669679  	9082,465474  	3848,150457  	0,558127  	-0,047953  
175,573000  	12,279457  	48,164789  	1256,818530  	1256,670793  	80,284592  	74,490940  	0,004141  	0,008244  	0,003965  	0,004064  	0,004333  	0,000001  	-0,000001  	22,389476  	17,891514  	19,701064  	24,576481  	35,636512  	32,977824  	35,029330  	38,080379  	48,712342  	46,241888  	50,296228  	68,987320  	23,867779  	21,968065  	21,766024  	73,158952  	0,058452  	0,029618  	-4448,561338  	-1,993050  	-0,011065  	-0,049986  	0,289633  	0,146759  	-3,565041  	9126,911485  	3956,121635  	0,573787  	-0,047939  
176,571000  	12,280192  	48,158106  	57,725912  	57,696365  	80,283843  	74,487197  	0,004139  	0,008208  	0,003962  	0,004022  	0,004340  	-0,000000  	-0,000000  	22,387689  	17,893618  	19,710476  	24,573448  	35,629838  	32,990394  	35,029373  	38,086134  	48,712625  	46,244181  	50,297908  	68,989040  	23,876591  	21,978224  	21,765359  	73,165559  	0,024825  	0,012579  	-1888,949370  	-1,525062  	-0,051181  	-0,050001  	0,295547  	0,149756  	-3,639714  	9049,440473  	3929,317725  	0,569899  	-0,047952  
177,571000  	12,279243  	48,159282  	57,725912  	956,927186  	80,277687  	74,495400  	0,004138  	0,008209  	0,003964  	0,004015  	0,004377  	0,000000  	-0,000000  	22,389994  	17,900732  	19,715780  	24,579588  	35,638171  	32,999361  	35,039037  	38,099397  	48,715076  	46,261464  	50,301236  	68,995654  	23,895271  	21,993125  	21,778107  	73,172125  	0,019133  	0,009695  	-1455,939583  	21302,501171  	-0,021694  	-0,049995  	0,324707  	0,164532  	-3,988926  	9053,146784  	3895,629249  	0,565013  	-0,047947  
178,571000  	12,275630  	48,165346  	1256,818530  	357,439972  	80,272001  	74,490909  	0,004142  	0,008234  	0,003963  	0,004031  	0,004318  	-0,000000  	-0,000000  	22,393383  	17,893626  	19,711921  	24,594131  	35,646060  	32,996380  	35,040777  	38,095056  	48,719917  	46,258600  	50,301533  	69,000247  	23,895243  	22,002014  	21,775302  	73,170881  	0,031501  	0,015962  	-2397,733723  	-16234,319242  	-0,015675  	-0,050000  	0,278101  	0,140916  	-3,415671  	9105,545197  	3975,518458  	0,576600  	-0,047952  
179,574000  	12,271590  	48,170915  	1256,818530  	1256,670793  	80,272657  	74,486355  	0,004139  	0,008226  	0,003962  	0,004082  	0,004344  	-0,000000  	-0,000001  	22,390212  	17,893450  	19,710916  	24,585654  	35,638712  	32,984889  	35,028019  	38,092454  	48,714600  	46,252622  	50,300880  	68,987350  	23,888757  	21,999763  	21,768970  	73,165508  	0,073303  	0,037143  	-5580,960316  	-1,993674  	-0,011069  	-0,050003  	0,298906  	0,151458  	-3,674513  	9089,496074  	3912,293429  	0,567430  	-0,047954  
180,570000  	12,272630  	48,168811  	1256,818530  	1256,670793  	80,277469  	74,483174  	0,004137  	0,008236  	0,003963  	0,004064  	0,004359  	-0,000000  	-0,000000  	22,396066  	17,897321  	19,719764  	24,586527  	35,629802  	32,996326  	35,038831  	38,096287  	48,710322  	46,252681  	50,309384  	68,989321  	23,897403  	22,002781  	21,777910  	73,177664  	0,058305  	0,029544  	-4438,725363  	-1,993593  	-0,011069  	-0,050001  	0,310772  	0,157471  	-3,825655  	9110,325411  	3876,394830  	0,562224  	-0,047952  
181,571000  	12,277283  	48,162932  	57,725912  	956,927186  	80,285092  	74,482737  	0,004137  	0,008440  	0,003962  	0,004015  	0,004325  	0,000000  	-0,000000  	22,401672  	17,905641  	19,716533  	24,599092  	35,636867  	32,992381  	35,039976  	38,092490  	48,732201  	46,251988  	50,302408  	68,989770  	23,906343  	22,014142  	21,775829  	73,168660  	0,018787  	0,009519  	-1429,800941  	21304,214171  	-0,021696  	-0,050000  	0,284007  	0,143908  	-3,501032  	9550,036437  	3887,862046  	0,563887  	-0,047951  
182,570000  	12,281447  	48,165779  	1256,818530  	-242,047242  	80,285842  	74,480117  	0,004140  	0,008153  	0,003961  	0,004008  	0,004309  	-0,000000  	-0,000001  	22,402459  	17,904425  	19,715477  	24,589623  	35,644814  	32,987666  	35,046237  	38,091671  	48,723364  	46,260081  	50,303425  	68,994648  	23,916029  	22,010078  	21,781091  	73,178906  	0,012977  	0,006575  	-987,576611  	-35511,448233  	-0,021696  	-0,050003  	0,270615  	0,137123  	-3,337885  	8931,550941  	3944,520259  	0,572104  	-0,047954  
183,572000  	12,284569  	48,170234  	1256,818530  	-242,047242  	80,288186  	74,480991  	0,004142  	0,008216  	0,003963  	0,004060  	0,004345  	0,000001  	-0,000001  	22,384795  	17,888782  	19,700168  	24,573919  	35,625389  	32,972693  	35,026495  	38,071606  	48,704150  	46,234495  	50,284188  	68,990114  	23,921973  	22,004469  	21,759982  	73,168109  	0,055031  	0,027885  	-4188,249189  	-35501,462871  	-0,021690  	-0,049987  	0,299639  	0,151829  	-3,696815  	9068,395785  	3981,703976  	0,577497  	-0,047940  
184,570000  	12,287508  	48,178650  	1256,818530  	956,927186  	80,286748  	74,493341  	0,004141  	0,008218  	0,003963  	0,004054  	0,004343  	0,000000  	-0,000000  	22,386126  	17,891010  	19,713792  	24,570206  	35,631142  	32,983242  	35,030882  	38,073846  	48,705720  	46,243455  	50,297087  	68,989586  	23,924311  	22,012139  	21,764323  	73,166078  	0,050222  	0,025448  	-3822,791586  	-4420,328330  	-0,012269  	-0,049996  	0,297854  	0,150925  	-3,666072  	9070,685788  	3973,774368  	0,576347  	-0,047948  
185,575000  	12,285518  	48,182641  	957,045375  	956,927186  	80,286905  	74,493435  	0,004139  	0,008230  	0,003962  	0,004031  	0,004347  	0,000001  	-0,000000  	22,387181  	17,890184  	19,710212  	24,575262  	35,623513  	32,981722  	35,033944  	38,075311  	48,707353  	46,249979  	50,294011  	68,989069  	23,926871  	21,997478  	21,775059  	73,170645  	0,031691  	0,016058  	-2412,667046  	-1,916714  	-0,013763  	-0,049989  	0,300876  	0,152456  	-3,703314  	9098,615055  	3911,439037  	0,567306  	-0,047942  
186,571000  	12,286436  	48,177691  	-242,047242  	357,439972  	80,284905  	74,490066  	0,004137  	0,008229  	0,003964  	0,004081  	0,004319  	0,000000  	-0,000000  	22,390786  	17,898742  	19,708648  	24,573705  	35,627873  	32,980402  	35,026411  	38,077656  	48,708901  	46,244361  	50,297787  	68,988158  	23,924362  	22,004234  	21,772433  	73,170182  	0,072035  	0,036501  	-5483,210854  	30939,933479  	-0,051177  	-0,049995  	0,278968  	0,141355  	-3,434473  	9094,729053  	3881,224618  	0,562924  	-0,047947  
187,570000  	12,289742  	48,170915  	-242,047242  	1256,670793  	80,281562  	74,479681  	0,004140  	0,008242  	0,003963  	0,004013  	0,004353  	-0,000000  	-0,000000  	22,399353  	17,896146  	19,721886  	24,584256  	35,632176  	32,979024  	35,021059  	38,079653  	48,711911  	46,249576  	50,296960  	68,983093  	23,919083  	22,013822  	21,773057  	73,181284  	0,017460  	0,008847  	-1328,655135  	35512,561628  	-0,021699  	-0,050006  	0,305690  	0,154895  	-3,768021  	9123,571632  	3934,980722  	0,570721  	-0,047956  
188,571000  	12,291885  	48,168997  	-242,047242  	1256,670793  	80,280062  	74,483423  	0,004140  	0,008228  	0,003965  	0,004050  	0,004343  	0,000001  	-0,000001  	22,395418  	17,892902  	19,709364  	24,578138  	35,627692  	32,990034  	35,027443  	38,088303  	48,704982  	46,249948  	50,290522  	68,987667  	23,903519  	22,001895  	21,773786  	73,181058  	0,046856  	0,023743  	-3565,231742  	35503,018494  	-0,021693  	-0,049991  	0,297960  	0,150979  	-3,669425  	9094,091644  	3945,861866  	0,572299  	-0,047943  
189,571000  	12,293538  	48,171162  	957,045375  	57,696365  	80,278843  	74,494901  	0,004140  	0,008216  	0,003962  	0,004026  	0,004356  	0,000001  	-0,000001  	22,385793  	17,897211  	19,709548  	24,575820  	35,632377  	32,982582  	35,035149  	38,084575  	48,710402  	46,242605  	50,291043  	68,986671  	23,903553  	22,001856  	21,775504  	73,178774  	0,027657  	0,014014  	-2104,385089  	-21304,136423  	-0,021692  	-0,049993  	0,307900  	0,156015  	-3,783537  	9067,052345  	3941,074445  	0,571605  	-0,047945  
190,571000  	12,297028  	48,171719  	-242,047242  	1256,670793  	80,277906  	74,497022  	0,004139  	0,008217  	0,003962  	0,004055  	0,004317  	0,000001  	-0,000000  	22,393696  	17,898794  	19,710756  	24,585163  	35,639322  	32,982331  	35,039669  	38,085653  	48,716730  	46,243242  	50,300931  	68,996373  	23,907686  	22,015543  	21,777980  	73,183853  	0,051077  	0,025881  	-3886,061754  	35502,087584  	-0,021692  	-0,049989  	0,277342  	0,140531  	-3,406236  	9070,205433  	3928,491577  	0,569780  	-0,047942  
191,571000  	12,299140  	48,172369  	-242,047242  	357,439972  	80,282718  	74,475096  	0,004134  	0,008252  	0,003964  	0,004030  	0,004356  	0,000000  	-0,000000  	22,395905  	17,900389  	19,705610  	24,585918  	35,630177  	32,987238  	35,036049  	38,085305  	48,711144  	46,237357  	50,296243  	68,993137  	23,920621  	22,019831  	21,774034  	73,184977  	0,030903  	0,015659  	-2351,105648  	30942,487167  	-0,051182  	-0,050000  	0,308587  	0,156363  	-3,807485  	9144,513453  	3820,965248  	0,554184  	-0,047951  
192,732000  	12,297303  	48,165686  	957,045375  	-242,047242  	80,288154  	74,466675  	0,004135  	0,008226  	0,003962  	0,004018  	0,004349  	0,000001  	-0,000000  	22,384202  	17,896515  	19,700502  	24,582014  	35,619663  	32,979753  	35,023314  	38,072773  	48,700382  	46,226068  	50,286254  	68,989817  	23,927467  	22,012997  	21,772380  	73,181874  	0,021122  	0,010703  	-1606,775762  	-34188,019861  	-0,026846  	-0,049990  	0,303032  	0,153548  	-3,747860  	9089,164989  	3841,498907  	0,557162  	-0,047943  
193,575000  	12,292895  	48,158910  	957,045375  	-242,047242  	80,287561  	74,464523  	0,004139  	0,008478  	0,003963  	0,004054  	0,004357  	0,000001  	-0,000000  	22,388979  	17,896325  	19,704584  	24,582284  	35,619191  	32,976654  	35,024278  	38,070661  	48,700187  	46,229620  	50,289737  	68,989216  	23,923772  	22,012099  	21,771176  	73,177192  	0,050436  	0,025556  	-3836,380561  	-34184,251339  	-0,026843  	-0,049984  	0,309255  	0,156702  	-3,825847  	9632,313131  	3921,543461  	0,568772  	-0,047938  
194,627000  	12,291977  	48,156559  	-242,047242  	-242,047242  	80,286373  	74,474815  	0,004141  	0,008202  	0,003960  	0,004042  	0,004364  	0,000001  	-0,000000  	22,397696  	17,895253  	19,709600  	24,586503  	35,627111  	32,980926  	35,028670  	38,079421  	48,711925  	46,236364  	50,292429  	68,994770  	23,920542  	22,013674  	21,770013  	73,173650  	0,041012  	0,020781  	-3119,452670  	-0,000000  	-0,544265  	-0,049983  	0,314509  	0,159364  	-3,883189  	9037,372150  	3973,322458  	0,576282  	-0,047937  
195,572000  	12,292528  	48,159158  	-242,047242  	-242,047242  	80,288935  	74,497988  	0,004141  	0,008368  	0,003964  	0,004045  	0,004344  	0,000001  	-0,000000  	22,392200  	17,891658  	19,707282  	24,582858  	35,632903  	32,982901  	35,019912  	38,077926  	48,710777  	46,231377  	50,290068  	68,991765  	23,915124  	21,996822  	21,768175  	73,172865  	0,043419  	0,022001  	-3302,745012  	-0,000000  	-0,544299  	-0,049986  	0,298910  	0,151460  	-3,677515  	9395,131201  	3958,967256  	0,574200  	-0,047940  
196,571000  	12,295283  	48,161386  	957,045375  	956,927186  	80,291123  	74,513209  	0,004141  	0,008199  	0,003962  	0,004070  	0,004370  	-0,000000  	-0,000000  	22,389236  	17,889574  	19,704466  	24,578503  	35,633197  	32,977219  	35,019176  	38,074939  	48,700009  	46,225694  	50,283736  	68,980755  	23,906430  	21,973347  	21,766015  	73,170883  	0,063715  	0,032285  	-4846,483758  	-1,917144  	-0,013766  	-0,050002  	0,319634  	0,161961  	-3,923637  	9029,760737  	3967,384079  	0,575420  	-0,047953  
197,575000  	12,294548  	48,159962  	957,045375  	1256,670793  	80,292404  	74,517856  	0,004135  	0,008238  	0,003962  	0,004002  	0,004338  	-0,000000  	-0,000001  	22,390656  	17,891166  	19,704024  	24,578026  	35,637154  	32,977700  	35,026383  	38,080601  	48,697129  	46,227995  	50,281684  	68,984406  	23,910924  	21,956386  	21,771582  	73,176376  	0,008143  	0,004126  	-619,362654  	4416,956232  	-0,012271  	-0,050002  	0,294205  	0,149076  	-3,609388  	9114,853773  	3829,600965  	0,555437  	-0,047954  
198,571000  	12,290997  	48,154764  	357,499067  	1256,670793  	80,292154  	74,509123  	0,004138  	0,008364  	0,003964  	0,004029  	0,004353  	0,000000  	-0,000000  	22,388762  	17,895596  	19,704435  	24,579598  	35,639003  	32,984909  	35,028131  	38,080403  	48,698415  	46,231601  	50,283860  	68,993549  	23,917066  	21,941131  	21,775515  	73,184298  	0,029926  	0,015164  	-2276,205399  	16229,338045  	-0,015674  	-0,049994  	0,305441  	0,154769  	-3,752740  	9387,033065  	3909,822046  	0,567072  	-0,047946  
199,574000  	12,287967  	48,151330  	357,499067  	1256,670793  	80,294716  	74,505131  	0,004140  	0,008170  	0,003963  	0,004034  	0,004342  	0,000000  	-0,000000  	22,388988  	17,894765  	19,707558  	24,580603  	35,628515  	32,980491  	35,026655  	38,071662  	48,696525  	46,228432  	50,278737  	68,993598  	23,906699  	21,926721  	21,773650  	73,175807  	0,034559  	0,017511  	-2628,534477  	16229,769505  	-0,015674  	-0,049996  	0,297050  	0,150517  	-3,653775  	8968,345215  	3953,445481  	0,573399  	-0,047948  
200,571000  	12,288518  	48,155352  	957,045375  	1256,670793  	80,296778  	74,504320  	0,004140  	0,008207  	0,003962  	0,004039  	0,004352  	-0,000000  	-0,000000  	22,383438  	17,888154  	19,708554  	24,575392  	35,620728  	32,971624  	35,016782  	38,066444  	48,693882  	46,222380  	50,281401  	68,993447  	23,897751  	21,904952  	21,777935  	73,166419  	0,038262  	0,019387  	-2910,424143  	4416,798071  	-0,012271  	-0,050000  	0,305343  	0,154719  	-3,757639  	9047,806980  	3937,388554  	0,571070  	-0,047952  
201,574000  	12,289987  	48,165315  	1256,818530  	1256,670793  	80,299528  	74,511899  	0,004140  	0,008252  	0,003964  	0,004058  	0,004304  	0,000001  	-0,000001  	22,380851  	17,889149  	19,708202  	24,580968  	35,624575  	32,966838  	35,017269  	38,067794  	48,700660  	46,226880  	50,290869  	68,990062  	23,889965  	21,883145  	21,770570  	73,166741  	0,053654  	0,027187  	-4082,209937  	-1,993199  	-0,011066  	-0,049990  	0,266900  	0,135240  	-3,281815  	9145,116197  	3941,265095  	0,571632  	-0,047943  
202,572000  	12,293355  	48,167728  	1256,818530  	657,183579  	80,296403  	74,513271  	0,004140  	0,008248  	0,003962  	0,004035  	0,004310  	0,000000  	-0,000000  	22,394896  	17,899628  	19,710332  	24,576111  	35,629414  	32,973438  	35,018976  	38,071474  	48,703603  	46,231621  	50,293193  	68,992636  	23,884253  	21,871039  	21,768677  	73,166576  	0,035071  	0,017771  	-2668,311093  	-9726,150727  	-0,013765  	-0,050000  	0,271491  	0,137566  	-3,335675  	9137,209071  	3941,109751  	0,571610  	-0,047951  
203,576000  	12,295467  	48,167728  	1256,818530  	-242,047242  	80,290123  	74,501918  	0,004138  	0,008314  	0,003962  	0,004077  	0,004324  	0,000001  	-0,000000  	22,390355  	17,901141  	19,702614  	24,575754  	35,622776  	32,975956  	35,014716  	38,070000  	48,700209  	46,229777  	50,295311  	68,986284  	23,865797  	21,852069  	21,771848  	73,163745  	0,068942  	0,034934  	-5244,991745  	-35504,429876  	-0,021691  	-0,049992  	0,283109  	0,143454  	-3,481468  	9278,663635  	3892,924850  	0,564621  	-0,047944  
204,571000  	12,295099  	48,163582  	1256,818530  	956,927186  	80,284186  	74,500983  	0,004137  	0,008223  	0,003964  	0,004011  	0,004331  	0,000001  	-0,000001  	22,394670  	17,897749  	19,703926  	24,578575  	35,626115  	32,977701  	35,030570  	38,066041  	48,697874  	46,229647  	50,292168  	68,991906  	23,865869  	21,851512  	21,769588  	73,173123  	0,015890  	0,008052  	-1208,742526  	-4419,816849  	-0,012268  	-0,049990  	0,288415  	0,146142  	-3,543649  	9081,909422  	3874,678985  	0,561975  	-0,047942  
205,574000  	12,293232  	48,160426  	-242,047242  	1256,670793  	80,287936  	74,503727  	0,004141  	0,008236  	0,003961  	0,004027  	0,004338  	0,000000  	-0,000001  	22,385754  	17,891417  	19,702054  	24,565164  	35,611911  	32,970301  	35,023431  	38,069395  	48,691576  	46,213398  	50,279651  	68,984484  	23,853393  	21,855667  	21,765889  	73,155877  	0,028742  	0,014564  	-2186,308568  	35507,329806  	-0,021696  	-0,049997  	0,294031  	0,148988  	-3,613279  	9109,956124  	3967,052207  	0,575372  	-0,047949  
206,571000  	12,295497  	48,159746  	-242,047242  	1256,670793  	80,289560  	74,508218  	0,004142  	0,008239  	0,003964  	0,004022  	0,004343  	0,000001  	-0,000000  	22,375022  	17,882705  	19,689960  	24,565674  	35,606058  	32,968026  	35,015055  	38,064449  	48,681973  	46,206313  	50,273543  	68,975076  	23,844022  	21,865543  	21,754705  	73,156927  	0,024680  	0,012506  	-1877,212820  	35502,116187  	-0,021692  	-0,049989  	0,297860  	0,150928  	-3,658529  	9115,999836  	3985,700555  	0,578077  	-0,047942  
207,570000  	12,297610  	48,157611  	657,272221  	1256,670793  	80,288217  	74,504164  	0,004142  	0,008236  	0,003963  	0,004055  	0,004376  	0,000002  	-0,000000  	22,387657  	17,895713  	19,703576  	24,569338  	35,615302  	32,972845  	35,025613  	38,058569  	48,697026  	46,223285  	50,279302  	68,980941  	23,851485  	21,886370  	21,768835  	73,160731  	0,050988  	0,025836  	-3877,761999  	9719,023434  	-0,013761  	-0,049980  	0,324426  	0,164389  	-3,986696  	9110,802937  	3991,836645  	0,578967  	-0,047934  
208,570000  	12,298589  	48,156002  	1256,818530  	57,696365  	80,289279  	74,506784  	0,004137  	0,008208  	0,003961  	0,004094  	0,004309  	0,000002  	-0,000001  	22,384604  	17,895321  	19,717724  	24,580324  	35,629902  	32,982348  	35,026763  	38,072918  	48,698674  	46,230367  	50,286267  	68,991505  	23,860606  	21,899282  	21,758875  	73,171289  	0,082465  	0,041786  	-6271,154948  	-24484,491986  	-0,018193  	-0,049980  	0,271378  	0,137509  	-3,333916  	9051,100850  	3886,647538  	0,563711  	-0,047934  
209,571000  	12,298528  	48,162499  	957,045375  	1256,670793  	80,284592  	74,504507  	0,004136  	0,008236  	0,003964  	0,003996  	0,004393  	0,000000  	-0,000000  	22,400846  	17,904663  	19,713030  	24,584649  	35,638521  	32,982406  	35,032761  	38,072632  	48,700875  	46,230083  	50,297130  	68,989521  	23,874262  	21,903247  	21,777876  	73,171321  	0,003176  	0,001609  	-241,577241  	4416,759582  	-0,012270  	-0,050000  	0,337479  	0,171003  	-4,144245  	9110,993947  	3859,144579  	0,559722  	-0,047951  
210,571000  	12,297793  	48,167573  	357,499067  	1256,670793  	80,279656  	74,498581  	0,004137  	0,008239  	0,003962  	0,004045  	0,004332  	0,000001  	-0,000000  	22,390836  	17,890604  	19,704208  	24,583396  	35,626758  	32,978208  	35,019359  	38,069645  	48,701817  	46,216036  	50,282964  	68,993090  	23,847575  	21,917370  	21,768462  	73,165651  	0,043025  	0,021801  	-3272,999504  	16227,164109  	-0,015672  	-0,049987  	0,289211  	0,146546  	-3,552125  	9117,181979  	3868,761789  	0,561116  	-0,047940  
211,570000  	12,294579  	48,171286  	1256,818530  	1256,670793  	80,279375  	74,498737  	0,004141  	0,008247  	0,003963  	0,004052  	0,004360  	-0,000000  	-0,000000  	22,388461  	17,896381  	19,699256  	24,571773  	35,622170  	32,972936  	35,020860  	38,071091  	48,695309  	46,219510  	50,276632  	68,993927  	23,852909  	21,921862  	21,766440  	73,164250  	0,048691  	0,024672  	-3704,752923  	-1,993714  	-0,011069  	-0,050004  	0,311021  	0,157597  	-3,819703  	9133,633639  	3974,205095  	0,576410  	-0,047955  
212,572000  	12,294273  	48,175123  	57,725912  	1256,670793  	80,281749  	74,493185  	0,004143  	0,008230  	0,003965  	0,004040  	0,004347  	-0,000000  	-0,000000  	22,380722  	17,891991  	19,704048  	24,582434  	35,627331  	32,966408  	35,026830  	38,070918  	48,697215  	46,224733  	50,281256  	68,988628  	23,853225  	21,921142  	21,764222  	73,157414  	0,038651  	0,019585  	-2941,217679  	24491,143658  	-0,018201  	-0,050000  	0,301146  	0,152593  	-3,703493  	9097,854550  	4006,163603  	0,581045  	-0,047951  
213,570000  	12,300763  	48,178402  	1256,818530  	-242,047242  	80,284499  	74,492530  	0,004145  	0,008246  	0,003962  	0,004058  	0,004347  	0,000002  	-0,000001  	22,386399  	17,896492  	19,704588  	24,570484  	35,619670  	32,973375  	35,023501  	38,070520  	48,696631  	46,219341  	50,280352  	68,985555  	23,836618  	21,920715  	21,770457  	73,166560  	0,053266  	0,026990  	-4052,993366  	-35497,645550  	-0,021687  	-0,049981  	0,300736  	0,152385  	-3,700627  	9132,883746  	4041,829186  	0,586218  	-0,047935  
214,573000  	12,304742  	48,180073  	657,272221  	-242,047242  	80,282062  	74,493341  	0,004144  	0,008205  	0,003963  	0,004024  	0,004347  	0,000000  	-0,000000  	22,389922  	17,898246  	19,706410  	24,583596  	35,625741  	32,979099  	35,022011  	38,071910  	48,702238  	46,224705  	50,288648  	68,996329  	23,830994  	21,921151  	21,779775  	73,175932  	0,026022  	0,013186  	-1979,871044  	-32741,653825  	-0,035219  	-0,049996  	0,301271  	0,152656  	-3,705136  	9043,413032  	4038,962382  	0,585802  	-0,047948  
215,570000  	12,306579  	48,177196  	657,272221  	-242,047242  	80,279093  	74,500546  	0,004140  	0,008255  	0,003963  	0,004016  	0,004346  	0,000001  	-0,000000  	22,388613  	17,902557  	19,711558  	24,579907  	35,616655  	32,979176  	35,026064  	38,067183  	48,697777  	46,224717  	50,283612  	68,995748  	23,826008  	21,903185  	21,774956  	73,173732  	0,019427  	0,009844  	-1477,905661  	-32739,210430  	-0,035217  	-0,049992  	0,300053  	0,152039  	-3,683673  	9152,084541  	3945,388773  	0,572230  	-0,047944  
216,570000  	12,306150  	48,175711  	1256,818530  	956,927186  	80,279281  	74,492187  	0,004141  	0,008224  	0,003964  	0,004006  	0,004312  	-0,000000  	-0,000000  	22,390844  	17,898837  	19,706405  	24,570401  	35,614372  	32,973912  	35,022785  	38,070702  	48,692700  	46,227017  	50,281619  	68,996887  	23,818759  	21,894092  	21,776743  	73,170305  	0,011734  	0,005946  	-892,641434  	-4420,677626  	-0,012270  	-0,050000  	0,273077  	0,138370  	-3,357455  	9084,737791  	3962,391886  	0,574696  	-0,047952  
217,574000  	12,303120  	48,173112  	1256,818530  	956,927186  	80,284749  	74,476375  	0,004145  	0,008227  	0,003962  	0,004034  	0,004342  	0,000002  	-0,000000  	22,391233  	17,895542  	19,708332  	24,569302  	35,612910  	32,967393  	35,023709  	38,069845  	48,694461  	46,225893  	50,279094  	68,992394  	23,820378  	21,887720  	21,762681  	73,163667  	0,034037  	0,017247  	-2589,300539  	-4419,146422  	-0,012266  	-0,049981  	0,297506  	0,150749  	-3,671247  	9090,351376  	4056,756337  	0,588383  	-0,047935  
218,570000  	12,298957  	48,175711  	657,272221  	-242,047242  	80,288561  	74,472258  	0,004145  	0,008237  	0,003962  	0,004080  	0,004345  	0,000000  	-0,000000  	22,395250  	17,906704  	19,714635  	24,574692  	35,625186  	32,971884  	35,032359  	38,071740  	48,699810  	46,228645  	50,285380  	68,999633  	23,833312  	21,891869  	21,769421  	73,172836  	0,071177  	0,036066  	-5415,672596  	-32742,186145  	-0,035220  	-0,049997  	0,299869  	0,151946  	-3,705449  	9113,180663  	4045,952864  	0,586816  	-0,047949  
219,574000  	12,296569  	48,180630  	-242,047242  	657,183579  	80,289123  	74,484047  	0,004143  	0,008238  	0,003962  	0,004025  	0,004337  	0,000001  	-0,000001  	22,395713  	17,909675  	19,712426  	24,573157  	35,629888  	32,977370  	35,034681  	38,070717  	48,701642  	46,225646  	50,288759  	68,999305  	23,837296  	21,888976  	21,777299  	73,175595  	0,026891  	0,013626  	-2046,490971  	32738,556848  	-0,035220  	-0,049991  	0,292823  	0,148376  	-3,611410  	9114,078412  	4001,044311  	0,580302  	-0,047944  
220,571000  	12,297916  	48,179578  	957,045375  	57,696365  	80,284874  	74,487852  	0,004138  	0,008225  	0,003964  	0,004042  	0,004363  	0,000001  	-0,000001  	22,395589  	17,904927  	19,710624  	24,575774  	35,625974  	32,980616  	35,034777  	38,069783  	48,700318  	46,224320  	50,289321  	68,990281  	23,837982  	21,875526  	21,772212  	73,172841  	0,040318  	0,020430  	-3068,127663  	-21300,419814  	-0,021688  	-0,049983  	0,313589  	0,158898  	-3,862146  	9086,858007  	3898,446625  	0,565422  	-0,047937  
221,572000  	12,298252  	48,168161  	1256,818530  	57,696365  	80,282780  	74,473474  	0,004139  	0,008230  	0,003961  	0,004016  	0,004302  	0,000000  	-0,000000  	22,395224  	17,900598  	19,714201  	24,583784  	35,623799  	32,979889  	35,031785  	38,070493  	48,697200  	46,222862  	50,290016  	68,989538  	23,833023  	21,864711  	21,773813  	73,173244  	0,019297  	0,009778  	-1467,974774  	-24491,835163  	-0,018199  	-0,049996  	0,265115  	0,134336  	-3,272061  	9096,704243  	3913,154882  	0,567555  	-0,047948  
222,573000  	12,293171  	48,149226  	1256,818530  	1256,670793  	80,285717  	74,473724  	0,004140  	0,008245  	0,003962  	0,004046  	0,004357  	0,000000  	-0,000000  	22,391711  	17,897628  	19,714768  	24,579697  	35,622385  	32,975971  	35,028313  	38,068098  	48,699705  	46,226458  	50,286165  	68,991413  	23,832518  	21,857765  	21,779414  	73,177481  	0,043546  	0,022065  	-3311,387673  	-1,993507  	-0,011068  	-0,049999  	0,309117  	0,156632  	-3,816897  	9130,165030  	3944,597931  	0,572116  	-0,047950  
223,575000  	12,288304  	48,130013  	1256,818530  	1256,670793  	80,282437  	74,470511  	0,004141  	0,008224  	0,003961  	0,004087  	0,004339  	0,000001  	-0,000000  	22,390421  	17,895387  	19,712799  	24,569060  	35,622902  	32,973476  	35,028061  	38,058851  	48,703722  	46,229893  	50,283725  	68,990191  	23,833013  	21,851230  	21,776598  	73,175213  	0,076785  	0,038908  	-5836,707543  	-1,993203  	-0,011066  	-0,049990  	0,294481  	0,149216  	-3,636135  	9084,619648  	3955,224876  	0,573657  	-0,047943  
224,571000  	12,287936  	48,117699  	57,725912  	1256,670793  	80,281249  	74,474878  	0,004139  	0,008253  	0,003962  	0,004046  	0,004342  	0,000001  	-0,000000  	22,393932  	17,895402  	19,712573  	24,569242  	35,622132  	32,971348  	35,024695  	38,052086  	48,701062  	46,222033  	50,286377  	68,990405  	23,822205  	21,844992  	21,772636  	73,167729  	0,044156  	0,022374  	-3355,334335  	24486,625899  	-0,018198  	-0,049990  	0,297433  	0,150711  	-3,669070  	9148,167412  	3920,950329  	0,568686  	-0,047943  
225,570000  	12,290079  	48,104209  	57,725912  	1256,670793  	80,282530  	74,474846  	0,004143  	0,008205  	0,003964  	0,004036  	0,004361  	0,000001  	-0,000000  	22,395671  	17,899403  	19,711360  	24,573461  	35,616825  	32,962686  	35,014898  	38,055213  	48,701452  	46,217698  	50,287469  	68,991810  	23,815647  	21,841420  	21,769314  	73,168919  	0,035579  	0,018028  	-2702,394416  	24485,727369  	-0,018197  	-0,049988  	0,311942  	0,158063  	-3,848922  	9043,801420  	4006,283642  	0,581062  	-0,047941  
226,570000  	12,293079  	48,092886  	657,272221  	1256,670793  	80,283405  	74,474971  	0,004136  	0,008231  	0,003961  	0,004061  	0,004335  	0,000000  	-0,000000  	22,391950  	17,897598  	19,708234  	24,572121  	35,613087  	32,953799  	35,004639  	38,054327  	48,701441  	46,217325  	50,278422  	68,991144  	23,811044  	21,841325  	21,764407  	73,170258  	0,056297  	0,028526  	-4274,300311  	9722,166827  	-0,013765  	-0,049998  	0,291485  	0,147697  	-3,596973  	9100,407016  	3863,360052  	0,560333  	-0,047949  
227,570000  	12,294916  	48,079613  	-242,047242  	1256,670793  	80,280218  	74,477872  	0,004139  	0,008227  	0,003964  	0,004043  	0,004321  	0,000002  	-0,000000  	22,388598  	17,890010  	19,702226  	24,567855  	35,607641  	32,958054  	35,002643  	38,050342  	48,690072  	46,209457  	50,260331  	68,986969  	23,807208  	21,843191  	21,766708  	73,171688  	0,041324  	0,020939  	-3136,174428  	35493,230931  	-0,021687  	-0,049975  	0,280569  	0,142167  	-3,458651  	9092,135555  	3913,853930  	0,567657  	-0,047930  
228,578000  	12,295712  	48,067732  	957,045375  	1256,670793  	80,281655  	74,482675  	0,004142  	0,008232  	0,003962  	0,004038  	0,004369  	0,000000  	-0,000000  	22,386669  	17,892195  	19,695974  	24,560743  	35,600493  	32,951913  	35,000901  	38,049827  	48,685333  	46,197430  	50,264937  	68,992506  	23,810924  	21,857128  	21,764157  	73,173570  	0,037520  	0,019012  	-2846,472953  	4416,625679  	-0,012270  	-0,049998  	0,318408  	0,161340  	-3,922822  	9102,149456  	3995,042381  	0,579432  	-0,047950  
229,570000  	12,292191  	48,055759  	57,725912  	956,927186  	80,283343  	74,489006  	0,004141  	0,008216  	0,003962  	0,004052  	0,004377  	0,000002  	-0,000000  	22,381854  	17,894835  	19,697793  	24,567862  	35,596559  	32,948125  	35,009468  	38,046758  	48,684983  	46,196012  	50,267531  	68,996244  	23,809016  	21,868234  	21,766918  	73,180367  	0,048775  	0,024715  	-3699,478915  	21295,249786  	-0,021687  	-0,049976  	0,325205  	0,164784  	-4,003363  	9067,708855  	3957,555037  	0,573995  	-0,047931  
230,571000  	12,291885  	48,056625  	1256,818530  	357,439972  	80,289217  	74,485950  	0,004143  	0,008229  	0,003962  	0,004034  	0,004352  	0,000001  	-0,000000  	22,385319  	17,886543  	19,703398  	24,559303  	35,601607  	32,947747  	35,007701  	38,035207  	48,684555  	46,193048  	50,263642  	68,996218  	23,815270  	21,881753  	21,770075  	73,176905  	0,034084  	0,017270  	-2585,253382  	-16230,308142  	-0,015671  	-0,049986  	0,305436  	0,154767  	-3,765787  	9096,154557  	3997,273687  	0,579756  	-0,047940  
231,575000  	12,296661  	48,066649  	1256,818530  	357,439972  	80,297403  	74,474129  	0,004140  	0,008234  	0,003963  	0,004030  	0,004354  	0,000001  	-0,000000  	22,384092  	17,905668  	19,712059  	24,565795  	35,606361  	32,951668  	35,013644  	38,049274  	48,688878  	46,198764  	50,269133  	68,997582  	23,838817  	21,884051  	21,770957  	73,193252  	0,031178  	0,015798  	-2365,220303  	-16230,688566  	-0,015672  	-0,049988  	0,306912  	0,155515  	-3,797028  	9106,069415  	3944,068349  	0,572039  	-0,047941  
232,571000  	12,302477  	48,077911  	57,725912  	956,927186  	80,297215  	74,475751  	0,004139  	0,008246  	0,003962  	0,004021  	0,004314  	0,000000  	-0,000000  	22,395537  	17,904662  	19,710948  	24,560978  	35,596697  	32,950419  	35,003020  	38,050187  	48,688987  	46,196050  	50,267576  	68,998813  	23,845886  	21,889246  	21,774117  	73,174952  	0,023333  	0,011823  	-1770,322684  	21302,502731  	-0,021694  	-0,049995  	0,275174  	0,139433  	-3,403319  	9132,372262  	3930,496927  	0,570070  	-0,047947  
233,572000  	12,308416  	48,085120  	957,045375  	956,927186  	80,294153  	74,478589  	0,004140  	0,008342  	0,003964  	0,004090  	0,004390  	0,000001  	-0,000000  	22,390728  	17,897495  	19,704109  	24,559687  	35,599531  	32,951829  	35,000607  	38,033381  	48,674974  	46,193064  	50,258906  	69,001351  	23,848365  	21,878434  	21,776970  	73,179869  	0,079501  	0,040284  	-6032,144847  	-1,916603  	-0,013762  	-0,049986  	0,335307  	0,169902  	-4,142829  	9338,367845  	3948,799281  	0,572725  	-0,047939  
234,571000  	12,310069  	48,086667  	357,499067  	-242,047242  	80,297090  	74,479525  	0,004141  	0,008180  	0,003961  	0,004048  	0,004363  	-0,000000  	-0,000000  	22,373328  	17,890501  	19,711917  	24,547083  	35,594949  	32,941193  	34,989114  	38,020497  	48,670875  	46,189392  	50,255849  	68,988862  	23,857650  	21,864864  	21,754294  	73,180060  	0,045631  	0,023122  	-3462,244583  	-30943,268168  	-0,051178  	-0,050000  	0,313915  	0,159063  	-3,879867  	8990,864640  	3959,821648  	0,574324  	-0,047952  
235,572000  	12,311354  	48,093999  	1256,818530  	657,183579  	80,298528  	74,490971  	0,004142  	0,008240  	0,003962  	0,004038  	0,004351  	0,000000  	-0,000000  	22,389489  	17,896279  	19,710017  	24,568496  	35,597871  	32,958569  	34,994347  	38,040959  	48,674896  	46,199304  	50,256742  	68,989525  	23,871726  	21,862310  	21,762613  	73,179828  	0,037715  	0,019110  	-2862,070847  	-9725,287484  	-0,013764  	-0,049995  	0,304002  	0,154040  	-3,750882  	9120,216215  	3990,826909  	0,578821  	-0,047947  
236,575000  	12,312273  	48,106251  	1256,818530  	1256,670793  	80,299465  	74,496335  	0,004143  	0,008231  	0,003965  	0,004053  	0,004375  	0,000000  	-0,000000  	22,376015  	17,884982  	19,697336  	24,551882  	35,591952  	32,941711  	34,982565  	38,022803  	48,670559  	46,189093  	50,252215  	68,977082  	23,865320  	21,849453  	21,762857  	73,173620  	0,049272  	0,024966  	-3740,288864  	-1,993466  	-0,011068  	-0,049997  	0,322902  	0,163617  	-3,981050  	9100,617835  	4017,821468  	0,582736  	-0,047949  
237,571000  	12,309058  	48,108634  	57,725912  	1256,670793  	80,301933  	74,487696  	0,004138  	0,008248  	0,003963  	0,004031  	0,004347  	0,000001  	-0,000000  	22,379984  	17,877530  	19,687235  	24,545267  	35,581642  	32,931383  	34,984661  	38,015359  	48,667489  	46,177445  	50,246266  	68,975998  	23,850450  	21,844715  	21,768455  	73,176501  	0,031717  	0,016071  	-2408,059892  	24486,866224  	-0,018198  	-0,049990  	0,300863  	0,152450  	-3,716425  	9135,627929  	3904,596837  	0,566314  	-0,047943  
238,570000  	12,307895  	48,103374  	657,272221  	1256,670793  	80,298496  	74,490378  	0,004137  	0,008223  	0,003962  	0,004026  	0,004340  	0,000001  	-0,000000  	22,382993  	17,894660  	19,699566  	24,554407  	35,591327  	32,941597  	34,982845  	38,022707  	48,668539  	46,179964  	50,248148  	68,996437  	23,862996  	21,848828  	21,772197  	73,180122  	0,027914  	0,014144  	-2119,066263  	9719,560267  	-0,013761  	-0,049983  	0,295571  	0,149768  	-3,647218  	9081,634932  	3876,006470  	0,562167  	-0,047937  
239,570000  	12,302661  	48,095113  	-242,047242  	1256,670793  	80,292310  	74,493872  	0,004141  	0,008250  	0,003965  	0,004040  	0,004392  	0,000000  	-0,000000  	22,381146  	17,887265  	19,703199  	24,556585  	35,588056  	32,933807  	34,982308  	38,021768  	48,664247  	46,180905  	50,250916  	68,990371  	23,871647  	21,851749  	21,763487  	73,177926  	0,039032  	0,019778  	-2962,868015  	35506,999567  	-0,021695  	-0,049997  	0,337083  	0,170803  	-4,152526  	9141,078094  	3969,156413  	0,575677  	-0,047949  
240,570000  	12,297028  	48,091400  	-242,047242  	1256,670793  	80,289685  	74,496803  	0,004142  	0,008231  	0,003963  	0,004043  	0,004353  	-0,000000  	-0,000000  	22,374705  	17,891976  	19,694706  	24,545175  	35,585935  	32,935414  	34,987093  	38,020709  	48,663269  	46,171815  	50,250625  	68,987038  	23,875671  	21,854744  	21,768185  	73,185083  	0,041468  	0,021012  	-3147,972932  	35509,139621  	-0,021697  	-0,050000  	0,305492  	0,154795  	-3,759745  	9099,732112  	3985,354561  	0,578027  	-0,047952  
241,573000  	12,297824  	48,092081  	57,725912  	956,927186  	80,295278  	74,496616  	0,004142  	0,008243  	0,003963  	0,004036  	0,004313  	0,000001  	-0,000001  	22,391202  	17,895288  	19,704358  	24,549183  	35,589335  	32,943297  	34,994111  	38,023719  	48,660895  	46,181965  	50,247750  	68,996722  	23,881504  	21,859310  	21,772493  	73,179405  	0,036187  	0,018336  	-2747,016976  	21300,054921  	-0,021692  	-0,049989  	0,273851  	0,138762  	-3,373702  	9125,282237  	3992,302677  	0,579035  	-0,047942  
242,572000  	12,304987  	48,096536  	657,272221  	-242,047242  	80,300340  	74,494620  	0,004141  	0,008231  	0,003966  	0,004029  	0,004355  	0,000001  	-0,000000  	22,380757  	17,884971  	19,700619  	24,544574  	35,579183  	32,940097  	34,984446  	38,009652  	48,660341  	46,172556  	50,242191  	68,989595  	23,884792  	21,852723  	21,763185  	73,169918  	0,030106  	0,015255  	-2285,270558  	-32738,738056  	-0,035216  	-0,049991  	0,307373  	0,155748  	-3,791285  	9099,367777  	3961,558677  	0,574576  	-0,047944  
243,572000  	12,310222  	48,102941  	657,272221  	657,183579  	80,306464  	74,486636  	0,004136  	0,008212  	0,003963  	0,004058  	0,004362  	0,000001  	-0,000000  	22,375742  	17,883279  	19,695826  	24,546022  	35,582708  	32,939078  	34,982460  	38,012321  	48,661650  	46,169839  	50,241901  	68,985896  	23,897222  	21,857237  	21,760815  	73,173712  	0,053263  	0,026989  	-4043,173217  	-1,810446  	-0,018198  	-0,049993  	0,312619  	0,158407  	-3,865357  	9059,614964  	3856,976824  	0,559407  	-0,047946  
244,570000  	12,312058  	48,105725  	1256,818530  	1256,670793  	80,308901  	74,488569  	0,004135  	0,008240  	0,003961  	0,004032  	0,004366  	-0,000000  	-0,000001  	22,374137  	17,885084  	19,697943  	24,553004  	35,588522  	32,938001  	34,979119  	38,011268  	48,666461  	46,178859  	50,248129  	68,982905  	23,913864  	21,857700  	21,764535  	73,174661  	0,032523  	0,016479  	-2468,830798  	-1,993661  	-0,011069  	-0,050003  	0,316476  	0,160361  	-3,913381  	9119,174147  	3841,272952  	0,557130  	-0,047954  
245,571000  	12,309120  	48,105354  	1256,818530  	1256,670793  	80,307839  	74,501793  	0,004139  	0,008236  	0,003963  	0,004067  	0,004359  	0,000001  	-0,000001  	22,384206  	17,889398  	19,697957  	24,556534  	35,593523  	32,938411  	34,983778  	38,015520  	48,665038  	46,178248  	50,249817  	68,988072  	23,924208  	21,859097  	21,765460  	73,173945  	0,060918  	0,030867  	-4624,650388  	-1,993336  	-0,011067  	-0,049994  	0,310549  	0,157358  	-3,830675  	9109,550757  	3928,166767  	0,569732  	-0,047946  
246,570000  	12,304161  	48,114574  	1256,818530  	1256,670793  	80,303652  	74,504663  	0,004142  	0,008221  	0,003963  	0,004026  	0,004360  	0,000001  	-0,000001  	22,386273  	17,892402  	19,700784  	24,563244  	35,588709  	32,942583  	34,989313  	38,022985  	48,663185  	46,178873  	50,248986  	68,989415  	23,921234  	21,866221  	21,762351  	73,174123  	0,027542  	0,013956  	-2091,723291  	-1,993216  	-0,011066  	-0,049990  	0,311071  	0,157622  	-3,832454  	9078,856791  	3980,284696  	0,577291  	-0,047943  
247,570000  	12,302416  	48,124970  	1256,818530  	1256,670793  	80,300340  	74,497583  	0,004143  	0,008228  	0,003963  	0,004044  	0,004340  	0,000001  	-0,000000  	22,378802  	17,891548  	19,698661  	24,557198  	35,582761  	32,941201  	34,986517  	38,022364  	48,662976  	46,178075  	50,249814  	68,983619  	23,916550  	21,866126  	21,758657  	73,170908  	0,042621  	0,021596  	-3238,008256  	-1,993272  	-0,011067  	-0,049992  	0,295891  	0,149930  	-3,647797  	9092,238843  	4006,403680  	0,581080  	-0,047945  
248,570000  	12,301436  	48,132333  	1256,818530  	1256,670793  	80,299902  	74,497333  	0,004140  	0,008227  	0,003962  	0,003998  	0,004362  	0,000000  	-0,000000  	22,376061  	17,885344  	19,692621  	24,544317  	35,579441  	32,933322  	34,984357  	38,021895  	48,660559  	46,177826  	50,247848  	68,983173  	23,921077  	21,860780  	21,756752  	73,171536  	0,004804  	0,002434  	-365,051870  	-1,993389  	-0,011067  	-0,049995  	0,313193  	0,158697  	-3,860974  	9091,859651  	3934,797133  	0,570694  	-0,047947  
249,571000  	12,303150  	48,125681  	1256,818530  	57,696365  	80,297434  	74,493591  	0,004136  	0,008243  	0,003963  	0,004094  	0,004322  	0,000001  	-0,000000  	22,374816  	17,887288  	19,696706  	24,548837  	35,582936  	32,929343  	34,988885  	38,025155  	48,663655  	46,179090  	50,247441  	68,992297  	23,930228  	21,860446  	21,765375  	73,174220  	0,083193  	0,042155  	-6320,375504  	-24487,438943  	-0,018195  	-0,049986  	0,280934  	0,142351  	-3,464042  	9126,636289  	3846,886521  	0,557944  	-0,047940  
250,571000  	12,305661  	48,115719  	1256,818530  	1256,670793  	80,297934  	74,495462  	0,004138  	0,008231  	0,003963  	0,004077  	0,004368  	0,000000  	-0,000001  	22,373844  	17,892087  	19,700381  	24,549672  	35,586229  	32,931585  	34,986060  	38,025286  	48,662973  	46,171744  	50,246429  	68,995412  	23,930393  	21,866126  	21,766521  	73,167900  	0,069408  	0,035169  	-5271,219980  	-1,993465  	-0,011068  	-0,049997  	0,317458  	0,160858  	-3,913478  	9098,825874  	3895,127911  	0,564941  	-0,047949  
251,573000  	12,308783  	48,113398  	357,499067  	1256,670793  	80,295747  	74,500484  	0,004140  	0,008218  	0,003961  	0,004063  	0,004318  	-0,000001  	-0,000000  	22,378081  	17,890352  	19,700999  	24,545053  	35,584262  	32,936495  	34,983557  	38,024636  	48,656446  	46,169278  	50,246030  	68,990932  	23,923058  	21,873682  	21,754120  	73,164765  	0,057676  	0,029225  	-4379,609448  	16233,893923  	-0,015678  	-0,050010  	0,278461  	0,141098  	-3,428488  	9072,527271  	3940,325969  	0,571496  	-0,047960  
252,575000  	12,310191  	48,119462  	957,045375  	1256,670793  	80,293372  	74,492811  	0,004141  	0,008225  	0,003961  	0,004032  	0,004298  	0,000001  	-0,000000  	22,383377  	17,895667  	19,710228  	24,558600  	35,593284  	32,941959  	34,995737  	38,025617  	48,663780  	46,178581  	50,259239  	68,994223  	23,922462  	21,877897  	21,761888  	73,172637  	0,032344  	0,016389  	-2456,328779  	4415,572890  	-0,012267  	-0,049985  	0,262524  	0,133023  	-3,235212  	9086,754720  	3962,300092  	0,574683  	-0,047939  
253,572000  	12,310344  	48,125681  	957,045375  	1256,670793  	80,295903  	74,495337  	0,004142  	0,008230  	0,003962  	0,004043  	0,004360  	0,000001  	-0,000000  	22,378909  	17,886522  	19,706736  	24,553802  	35,588901  	32,944320  	34,990571  	38,021290  	48,667514  	46,180837  	50,261299  	68,989586  	23,916433  	21,882904  	21,767090  	73,168978  	0,041507  	0,021032  	-3152,757426  	4415,549602  	-0,012267  	-0,049985  	0,311246  	0,157711  	-3,835645  	9097,819885  	3996,617005  	0,579660  	-0,047938  
254,572000  	12,310405  	48,129765  	357,499067  	1256,670793  	80,298278  	74,497708  	0,004141  	0,008234  	0,003963  	0,004029  	0,004359  	0,000001  	-0,000000  	22,372160  	17,890720  	19,702716  	24,552791  	35,592998  	32,947637  	34,994431  	38,020236  	48,676228  	46,178270  	50,255463  	68,990297  	23,909963  	21,891633  	21,768824  	73,162547  	0,030187  	0,015296  	-2293,159869  	16227,802383  	-0,015672  	-0,049989  	0,310479  	0,157322  	-3,826196  	9105,513362  	3966,141326  	0,575240  	-0,047942  
255,571000  	12,309671  	48,127259  	357,499067  	1256,670793  	80,303808  	74,489973  	0,004135  	0,008243  	0,003960  	0,004070  	0,004368  	-0,000000  	-0,000000  	22,387930  	17,900981  	19,710031  	24,562050  	35,603367  	32,950250  	34,998610  	38,034593  	48,675226  	46,187867  	50,267299  	68,992745  	23,923487  	21,897881  	21,769179  	73,176736  	0,063716  	0,032285  	-4839,959347  	16231,395500  	-0,015676  	-0,050001  	0,318077  	0,161172  	-3,928787  	9126,544321  	3844,499872  	0,557598  	-0,047952  
256,572000  	12,309732  	48,124475  	957,045375  	1256,670793  	80,308432  	74,501825  	0,004138  	0,008231  	0,003963  	0,004049  	0,004348  	0,000001  	-0,000000  	22,383673  	17,893737  	19,704934  	24,562364  	35,604190  	32,943836  	34,991404  	38,029326  	48,667113  	46,181513  	50,259476  	68,990141  	23,924163  	21,896338  	21,768154  	73,173990  	0,046047  	0,023332  	-3497,517511  	4415,326107  	-0,012266  	-0,049982  	0,301758  	0,152903  	-3,722599  	9098,800406  	3897,479255  	0,565282  	-0,047936  
257,570000  	12,304589  	48,117359  	957,045375  	1256,670793  	80,309276  	74,496959  	0,004143  	0,008263  	0,003962  	0,004055  	0,004324  	0,000001  	-0,000001  	22,381612  	17,898352  	19,705327  	24,570565  	35,601398  	32,943911  	35,002475  	38,037150  	48,676334  	46,190126  	50,265084  	68,995947  	23,934749  	21,897340  	21,772126  	73,173429  	0,050856  	0,025769  	-3862,601960  	4416,004679  	-0,012268  	-0,049990  	0,282816  	0,143305  	-3,492344  	9169,526626  	4011,134613  	0,581766  	-0,047943  
258,570000  	12,300732  	48,121566  	357,499067  	1256,670793  	80,309214  	74,501887  	0,004142  	0,008220  	0,003963  	0,004033  	0,004325  	0,000001  	-0,000000  	22,398924  	17,902231  	19,706898  	24,563693  	35,601046  	32,936859  	34,999787  	38,033627  	48,670582  	46,180417  	50,269282  	68,997067  	23,939672  	21,903438  	21,765733  	73,161195  	0,033671  	0,017061  	-2557,940353  	16228,548820  	-0,015673  	-0,049991  	0,283672  	0,143739  	-3,499911  	9075,988805  	3984,245970  	0,577866  	-0,047944  
259,574000  	12,299263  	48,127692  	1256,818530  	1256,670793  	80,307058  	74,512242  	0,004140  	0,008230  	0,003962  	0,004029  	0,004349  	0,000001  	-0,000001  	22,381205  	17,904711  	19,700959  	24,553819  	35,598427  	32,948627  	34,993115  	38,035735  	48,683244  	46,184620  	50,265282  	69,001006  	23,942959  	21,910432  	21,772450  	73,168256  	0,029828  	0,015114  	-2266,450354  	-1,993180  	-0,011066  	-0,049989  	0,302678  	0,153369  	-3,726366  	9098,641938  	3934,521751  	0,570654  	-0,047942  
260,570000  	12,301161  	48,132024  	57,725912  	57,696365  	80,307870  	74,515236  	0,004137  	0,008242  	0,003962  	0,004036  	0,004373  	0,000001  	-0,000000  	22,377609  	17,885283  	19,701950  	24,546388  	35,591292  	32,930781  	34,997458  	38,021178  	48,668162  	46,175811  	50,255263  	68,988057  	23,936476  	21,895720  	21,771506  	73,166054  	0,035711  	0,018095  	-2713,666750  	-1,524704  	-0,051169  	-0,049988  	0,322022  	0,163171  	-3,963025  	9122,485702  	3882,975769  	0,563178  	-0,047941  
261,574000  	12,307405  	48,126114  	1256,818530  	1256,670793  	80,307995  	74,521786  	0,004137  	0,008237  	0,003963  	0,004033  	0,004363  	0,000001  	-0,000001  	22,375265  	17,878984  	19,703872  	24,558455  	35,579027  	32,938990  	34,995827  	38,013270  	48,673876  	46,179951  	50,246577  	68,994663  	23,934053  	21,915266  	21,755893  	73,167509  	0,033758  	0,017105  	-2564,406035  	-1,993031  	-0,011065  	-0,049985  	0,313692  	0,158950  	-3,856232  	9113,069594  	3875,568682  	0,562104  	-0,047939  
262,571000  	12,309793  	48,124258  	657,272221  	1256,670793  	80,312182  	74,518230  	0,004140  	0,008235  	0,003963  	0,004060  	0,004343  	0,000001  	-0,000001  	22,376161  	17,896817  	19,706206  	24,561222  	35,590755  	32,947131  	34,986403  	38,032190  	48,668778  	46,182665  	50,264340  	68,992299  	23,946908  	21,931475  	21,759668  	73,172880  	0,055581  	0,028163  	-4221,677027  	9721,322418  	-0,013764  	-0,049993  	0,297751  	0,150873  	-3,665168  	9108,726582  	3934,204001  	0,570608  	-0,047945  
263,573000  	12,310528  	48,129177  	657,272221  	357,439972  	80,317712  	74,511150  	0,004141  	0,008247  	0,003964  	0,004024  	0,004348  	0,000001  	-0,000001  	22,380569  	17,888495  	19,699077  	24,550533  	35,587273  	32,939370  	34,980869  	38,017487  	48,671288  	46,175096  	50,254109  	68,984199  	23,937493  	21,934098  	21,757304  	73,162224  	0,026430  	0,013392  	-2007,761145  	-7101,546081  	-0,021689  	-0,049984  	0,301783  	0,152916  	-3,722880  	9133,700139  	3966,402587  	0,575278  	-0,047938  
264,571000  	12,309365  	48,134437  	57,725912  	-242,047242  	80,315525  	74,495805  	0,004141  	0,008288  	0,003964  	0,004037  	0,004362  	-0,000000  	-0,000001  	22,386473  	17,896111  	19,698438  	24,561157  	35,593951  	32,943935  	34,986485  	38,026156  	48,678274  	46,179197  	50,262596  	68,987945  	23,943443  	21,945980  	21,768595  	73,170049  	0,036916  	0,018705  	-2804,767010  	-27700,658750  	-0,093563  	-0,050002  	0,312736  	0,158466  	-3,866736  	9223,704266  	3973,393069  	0,576292  	-0,047953  
265,571000  	12,309793  	48,136572  	1256,818530  	1256,670793  	80,308745  	74,507345  	0,004142  	0,008272  	0,003964  	0,004031  	0,004351  	-0,000000  	-0,000001  	22,393111  	17,900825  	19,702603  	24,563006  	35,598631  	32,951442  	34,984107  	38,029321  	48,679651  	46,184297  	50,269486  	68,993544  	23,959607  	21,944577  	21,781154  	73,170598  	0,031878  	0,016153  	-2422,122574  	-1,993714  	-0,011069  	-0,050004  	0,304599  	0,154343  	-3,754279  	9188,465667  	3987,670600  	0,578363  	-0,047955  
266,571000  	12,311018  	48,134592  	657,272221  	657,183579  	80,305308  	74,522503  	0,004136  	0,008241  	0,003963  	0,004050  	0,004378  	0,000001  	-0,000000  	22,386040  	17,895138  	19,695526  	24,562051  	35,588478  	32,937297  	34,986368  	38,030128  	48,672246  	46,172207  	50,259865  	69,005742  	23,953421  	21,936196  	21,762853  	73,160056  	0,046837  	0,023732  	-3558,388677  	-1,810402  	-0,018198  	-0,049992  	0,325728  	0,165049  	-4,001836  	9120,850087  	3858,600875  	0,559643  	-0,047944  
267,571000  	12,314232  	48,126145  	-242,047242  	657,183579  	80,302871  	74,522098  	0,004134  	0,008235  	0,003962  	0,004070  	0,004361  	0,000001  	-0,000001  	22,388947  	17,893053  	19,695883  	24,557977  	35,593261  	32,934691  	34,995109  	38,027682  	48,666802  	46,177264  	50,256516  	69,001246  	23,956598  	21,938999  	21,762862  	73,165793  	0,063402  	0,032126  	-4815,338956  	32733,698900  	-0,035214  	-0,049983  	0,311801  	0,157992  	-3,829385  	9108,781763  	3815,789467  	0,553433  	-0,047937  
268,573000  	12,315762  	48,121752  	957,045375  	1256,670793  	80,298559  	74,505193  	0,004139  	0,008242  	0,003961  	0,004086  	0,004352  	-0,000001  	-0,000001  	22,383961  	17,892337  	19,700164  	24,559304  	35,593697  	32,937995  	34,994624  	38,033148  	48,674173  	46,175850  	50,266651  	68,999051  	23,964751  	21,933789  	21,763592  	73,164512  	0,076277  	0,038650  	-5792,295199  	4417,813019  	-0,012273  	-0,050013  	0,304878  	0,154484  	-3,752509  	9124,530222  	3911,008310  	0,567244  	-0,047963  
269,571000  	12,312732  	48,124815  	957,045375  	956,927186  	80,298559  	74,503696  	0,004139  	0,008231  	0,003963  	0,004035  	0,004346  	0,000000  	-0,000001  	22,384826  	17,889548  	19,702006  	24,553062  	35,591384  	32,942817  	34,991384  	38,027522  	48,673014  	46,173810  	50,268114  	68,996553  	23,959293  	21,921003  	21,766285  	73,167143  	0,035253  	0,017863  	-2677,473078  	-1,916876  	-0,013764  	-0,049994  	0,300080  	0,152053  	-3,694409  	9100,491202  	3928,604554  	0,569796  	-0,047946  
270,571000  	12,311814  	48,132550  	357,499067  	-242,047242  	80,294497  	74,501076  	0,004143  	0,008416  	0,003962  	0,004064  	0,004346  	-0,000001  	-0,000000  	22,386676  	17,890662  	19,698354  	24,550090  	35,590781  	32,941718  	34,989044  	38,018463  	48,671045  	46,175314  	50,261658  	68,988859  	23,950324  	21,909205  	21,758186  	73,165467  	0,058539  	0,029662  	-4447,134520  	-30949,474598  	-0,051188  	-0,050012  	0,300468  	0,152250  	-3,698268  	9497,923125  	4007,025057  	0,581170  	-0,047961  
271,571000  	12,311814  	48,140811  	357,499067  	657,183579  	80,291123  	74,504600  	0,004141  	0,008185  	0,003961  	0,004026  	0,004352  	0,000001  	-0,000000  	22,388569  	17,899023  	19,705361  	24,559892  	35,594152  	32,945433  	34,996454  	38,027267  	48,676276  	46,179957  	50,265848  	68,989201  	23,960512  	21,899261  	21,763342  	73,171985  	0,027653  	0,014012  	-2101,265360  	7098,556455  	-0,021691  	-0,049987  	0,304954  	0,154522  	-3,749005  	9000,807796  	3954,709416  	0,573582  	-0,047941  
272,572000  	12,314569  	48,145142  	-242,047242  	1256,670793  	80,288186  	74,519509  	0,004136  	0,008204  	0,003965  	0,004050  	0,004370  	0,000001  	-0,000000  	22,390536  	17,900886  	19,705158  	24,566815  	35,592800  	32,948480  	34,998855  	38,032718  	48,680506  	46,180283  	50,267444  	68,989101  	23,957103  	21,886057  	21,767366  	73,176182  	0,047236  	0,023935  	-3589,405692  	35498,969813  	-0,021690  	-0,049984  	0,319074  	0,161677  	-3,910505  	9040,959609  	3857,372245  	0,559465  	-0,047938  
273,571000  	12,313589  	48,146565  	-242,047242  	1256,670793  	80,286655  	74,528055  	0,004140  	0,008231  	0,003963  	0,004026  	0,004328  	0,000001  	-0,000000  	22,389281  	17,895439  	19,704303  	24,567985  	35,597036  	32,951349  	34,998281  	38,032633  	48,681145  	46,185106  	50,267421  	68,990887  	23,951751  	21,874015  	21,764057  	73,175810  	0,027639  	0,014005  	-2100,428165  	35501,323093  	-0,021692  	-0,049988  	0,286334  	0,145087  	-3,503124  	9099,444182  	3947,365879  	0,572517  	-0,047941  
274,574000  	12,308201  	48,145266  	357,499067  	657,183579  	80,291716  	74,500858  	0,004141  	0,008271  	0,003962  	0,004012  	0,004346  	0,000000  	-0,000000  	22,387261  	17,894748  	19,705833  	24,561202  	35,601614  	32,948359  	34,998807  	38,031295  	48,680468  	46,186818  	50,272415  	68,995089  	23,954089  	21,857705  	21,757850  	73,175498  	0,016292  	0,008255  	-1238,273110  	7099,492871  	-0,021694  	-0,049995  	0,299989  	0,152006  	-3,690729  	9186,943243  	3972,390394  	0,576147  	-0,047947  
275,571000  	12,301222  	48,146380  	1256,818530  	-242,047242  	80,296872  	74,493435  	0,004141  	0,008254  	0,003963  	0,004034  	0,004332  	0,000001  	-0,000000  	22,388917  	17,900105  	19,703808  	24,558622  	35,595553  	32,945119  	34,999192  	38,030279  	48,678747  	46,182107  	50,277251  	68,992043  	23,951918  	21,832232  	21,754740  	73,172186  	0,034000  	0,017228  	-2584,721349  	-35504,799126  	-0,021692  	-0,049992  	0,289205  	0,146543  	-3,565789  	9150,394453  	3956,291101  	0,573812  	-0,047945  
276,572000  	12,299018  	48,154486  	1256,818530  	-242,047242  	80,297184  	74,501856  	0,004141  	0,008390  	0,003961  	0,004050  	0,004359  	0,000000  	-0,000000  	22,388957  	17,900851  	19,704434  	24,562937  	35,591639  	32,949755  	34,998391  	38,033464  	48,676502  	46,178734  	50,274229  	68,988920  	23,951356  	21,811351  	21,761339  	73,170496  	0,047384  	0,024010  	-3603,220511  	-35505,992689  	-0,021692  	-0,049994  	0,310496  	0,157331  	-3,822952  	9442,578198  	3960,866690  	0,574475  	-0,047947  
277,572000  	12,303701  	48,160117  	1256,818530  	1256,670793  	80,296778  	74,496024  	0,004140  	0,008146  	0,003963  	0,004026  	0,004341  	0,000001  	-0,000000  	22,386562  	17,894409  	19,703986  	24,561744  	35,595391  	32,950708  	35,000110  	38,036223  	48,678749  	46,177591  	50,269555  	68,993496  	23,954026  	21,795761  	21,764653  	73,171338  	0,027756  	0,014064  	-2110,694306  	-1,993334  	-0,011067  	-0,049994  	0,296682  	0,150331  	-3,656285  	8916,893364  	3938,235886  	0,571193  	-0,047946  
278,572000  	12,304314  	48,155662  	1256,818530  	1256,670793  	80,300465  	74,502636  	0,004137  	0,008235  	0,003963  	0,004085  	0,004351  	0,000001  	-0,000000  	22,387304  	17,895228  	19,708197  	24,569038  	35,602975  	32,951296  	35,009909  	38,038177  	48,688276  	46,185759  	50,276134  	68,999880  	23,959206  	21,776005  	21,763625  	73,171776  	0,075569  	0,038291  	-5745,767041  	-1,993031  	-0,011065  	-0,049985  	0,304096  	0,154087  	-3,745762  	9108,460583  	3877,079756  	0,562323  	-0,047939  
279,570000  	12,299630  	48,148329  	357,499067  	1256,670793  	80,305714  	74,512491  	0,004138  	0,008228  	0,003962  	0,004047  	0,004371  	0,000001  	-0,000000  	22,384933  	17,903226  	19,717060  	24,572815  	35,612194  	32,950120  	35,007018  	38,032983  	48,692596  	46,187734  	50,279661  	69,001508  	23,957339  	21,758516  	21,764151  	73,173716  	0,044452  	0,022524  	-3379,583900  	16227,022666  	-0,015672  	-0,049986  	0,320007  	0,162150  	-3,938633  	9094,078203  	3893,383821  	0,564688  	-0,047940  
280,576000  	12,296875  	48,145297  	-242,047242  	1256,670793  	80,304464  	74,508624  	0,004141  	0,008237  	0,003964  	0,004060  	0,004354  	0,000001  	-0,000000  	22,388486  	17,901279  	19,711755  	24,571796  	35,610966  	32,949024  	35,004552  	38,033727  	48,688780  	46,186083  	50,285868  	68,993213  	23,947787  	21,734843  	21,758744  	73,170795  	0,054840  	0,027788  	-4169,332322  	35502,438625  	-0,021693  	-0,049990  	0,306870  	0,155493  	-3,778643  	9113,760062  	3974,713494  	0,576483  	-0,047943  
281,570000  	12,295926  	48,150433  	-242,047242  	1256,670793  	80,303621  	74,504445  	0,004140  	0,008221  	0,003962  	0,004090  	0,004382  	0,000000  	-0,000000  	22,391453  	17,905863  	19,713252  	24,576287  	35,602385  	32,958683  	35,003143  	38,042135  	48,691107  	46,190470  	50,285555  	68,993171  	23,939856  	21,716968  	21,766473  	73,174029  	0,079747  	0,040409  	-6064,020461  	35507,197191  	-0,021696  	-0,049997  	0,328548  	0,166478  	-4,047899  	9077,654840  	3941,173300  	0,571619  	-0,047949  
282,571000  	12,297395  	48,156683  	357,499067  	1256,670793  	80,303683  	74,503072  	0,004141  	0,008233  	0,003961  	0,004017  	0,004296  	0,000001  	-0,000001  	22,390524  	17,902182  	19,715040  	24,574855  	35,605097  	32,957652  	35,001347  	38,038753  	48,693211  	46,191709  	50,291711  	68,994371  	23,924324  	21,712879  	21,765900  	73,166279  	0,020258  	0,010265  	-1540,661884  	16227,383998  	-0,015672  	-0,049987  	0,260892  	0,132196  	-3,215133  	9104,915570  	3960,146458  	0,574371  	-0,047941  
283,674000  	12,298589  	48,159839  	1256,818530  	357,439972  	80,295497  	74,503291  	0,004140  	0,008216  	0,003963  	0,004059  	0,004361  	0,000000  	-0,000000  	22,397300  	17,906088  	19,714610  	24,569387  	35,607029  	32,954390  	35,004151  	38,044810  	48,692331  	46,189849  	50,287935  	68,997126  	23,926444  	21,698291  	21,762528  	73,173704  	0,054513  	0,027622  	-4145,929431  	-16232,908105  	-0,015674  	-0,049995  	0,312431  	0,158311  	-3,844704  	9066,760877  	3940,001159  	0,571449  	-0,047947  
284,571000  	12,299752  	48,155940  	1256,818530  	956,927186  	80,289623  	74,498051  	0,004136  	0,008425  	0,003963  	0,004031  	0,004370  	0,000001  	-0,000001  	22,391891  	17,906117  	19,703538  	24,565968  	35,604449  	32,950756  	35,004271  	38,039993  	48,691966  	46,187980  	50,277308  	69,001412  	23,923846  	21,687267  	21,769733  	73,170542  	0,031890  	0,016159  	-2425,043375  	-4419,952165  	-0,012268  	-0,049991  	0,319097  	0,161689  	-3,926299  	9518,416425  	3865,386586  	0,560627  	-0,047944  
285,571000  	12,294518  	48,144214  	957,045375  	57,696365  	80,289029  	74,496741  	0,004139  	0,008220  	0,003963  	0,004061  	0,004362  	-0,000000  	-0,000000  	22,394640  	17,903520  	19,717888  	24,569984  	35,612809  	32,954934  	35,009647  	38,046120  	48,704915  	46,201868  	50,293126  	69,004372  	23,923001  	21,688244  	21,771820  	73,169893  	0,056041  	0,028397  	-4260,824097  	-21307,022958  	-0,021695  	-0,050001  	0,312915  	0,158556  	-3,850710  	9075,149066  	3915,308516  	0,567867  	-0,047952  
286,571000  	12,291089  	48,145266  	357,499067  	1256,670793  	80,285655  	74,506534  	0,004141  	0,008240  	0,003963  	0,004030  	0,004356  	0,000001  	-0,000000  	22,394708  	17,903142  	19,704129  	24,564480  	35,601661  	32,959616  	35,007959  	38,047247  	48,696491  	46,190387  	50,279155  	68,996314  	23,907819  	21,681027  	21,760606  	73,174083  	0,031273  	0,015846  	-2377,960550  	16225,692630  	-0,015670  	-0,049982  	0,308142  	0,156138  	-3,783356  	9118,120760  	3974,318072  	0,576426  	-0,047936  
287,571000  	12,292559  	48,149350  	1256,818530  	1256,670793  	80,284499  	74,530020  	0,004142  	0,008241  	0,003963  	0,004077  	0,004321  	-0,000000  	-0,000001  	22,394883  	17,902390  	19,717479  	24,566928  	35,600430  	32,961850  	35,007675  	38,040093  	48,690077  	46,188940  	50,283479  	69,001499  	23,905779  	21,671579  	21,768046  	73,172105  	0,069241  	0,035085  	-5265,460812  	-1,993755  	-0,011069  	-0,050006  	0,280193  	0,141976  	-3,425549  	9122,238804  	3983,010278  	0,577687  	-0,047956  
288,571000  	12,298191  	48,149041  	1256,818530  	57,696365  	80,289310  	74,526838  	0,004141  	0,008311  	0,003963  	0,004037  	0,004320  	0,000001  	-0,000000  	22,396526  	17,898470  	19,713520  	24,573618  	35,601789  	32,963038  	35,010615  	38,035763  	48,697277  	46,187028  	50,279687  	68,993009  	23,903229  	21,659252  	21,761050  	73,169634  	0,036483  	0,018486  	-2773,923569  	-24488,411098  	-0,018196  	-0,049989  	0,280046  	0,141902  	-3,428508  	9272,576768  	3972,637532  	0,576182  	-0,047942  
289,571000  	12,301099  	48,150402  	1256,818530  	-242,047242  	80,289248  	74,517825  	0,004139  	0,008293  	0,003962  	0,004063  	0,004341  	-0,000000  	-0,000000  	22,385365  	17,900912  	19,717648  	24,567346  	35,597674  	32,958075  	34,998798  	38,032048  	48,692203  	46,182814  	50,276696  	68,996435  	23,885780  	21,674351  	21,758493  	73,171662  	0,057999  	0,029389  	-4409,622173  	-35509,711196  	-0,021695  	-0,050000  	0,296059  	0,150015  	-3,630166  	9232,852960  	3928,978792  	0,569850  	-0,047952  
290,572000  	12,298099  	48,147555  	1256,818530  	357,439972  	80,291310  	74,518386  	0,004136  	0,008269  	0,003964  	0,004055  	0,004360  	-0,000000  	-0,000001  	22,394968  	17,904610  	19,722430  	24,569947  	35,603062  	32,954819  	35,005401  	38,042893  	48,692455  	46,187158  	50,282925  	68,997672  	23,877283  	21,669114  	21,761065  	73,177284  	0,051252  	0,025970  	-3896,699621  	-16235,387997  	-0,015676  	-0,050004  	0,311201  	0,157688  	-3,816830  	9181,444971  	3862,011383  	0,560137  	-0,047955  
291,570000  	12,293324  	48,143750  	1256,818530  	357,439972  	80,288436  	74,507751  	0,004139  	0,008255  	0,003963  	0,004036  	0,004372  	0,000000  	-0,000000  	22,397888  	17,901108  	19,714134  	24,564815  	35,600257  	32,961474  	35,001761  	38,042173  	48,692988  	46,188235  	50,283949  	68,995303  	23,861929  	21,661947  	21,763726  	73,177602  	0,035678  	0,018078  	-2712,686766  	-16233,683220  	-0,015674  	-0,049998  	0,320500  	0,162400  	-3,936154  	9150,591830  	3916,282947  	0,568009  	-0,047950  
292,572000  	12,294732  	48,139480  	57,725912  	956,927186  	80,287936  	74,512429  	0,004142  	0,008226  	0,003962  	0,004020  	0,004365  	0,000000  	-0,000000  	22,395469  	17,896341  	19,706397  	24,568445  	35,603850  	32,949153  	34,999663  	38,039632  	48,694047  	46,191107  	50,276557  	69,002153  	23,863046  	21,666102  	21,761366  	73,180725  	0,022686  	0,011495  	-1724,575390  	21303,649411  	-0,021695  	-0,049998  	0,315585  	0,159909  	-3,872328  	9089,023500  	3978,484118  	0,577030  	-0,047950  
293,574000  	12,302538  	48,143131  	1256,818530  	57,696365  	80,291279  	74,505037  	0,004143  	0,008332  	0,003962  	0,004021  	0,004322  	0,000000  	-0,000000  	22,397464  	17,907895  	19,717540  	24,571344  	35,611488  	32,957776  	35,014503  	38,046351  	48,700446  	46,192122  	50,285773  	69,002548  	23,860249  	21,659976  	21,772017  	73,182811  	0,023980  	0,012151  	-1822,760710  	-24492,098829  	-0,018199  	-0,049997  	0,281612  	0,142695  	-3,461887  	9318,501342  	4000,239346  	0,580186  	-0,047949  
294,570000  	12,308109  	48,149133  	1256,818530  	657,183579  	80,293778  	74,504289  	0,004142  	0,008284  	0,003963  	0,004051  	0,004333  	0,000001  	-0,000001  	22,385533  	17,909900  	19,705235  	24,565793  	35,602267  	32,954203  	35,009457  	38,039830  	48,697071  	46,192272  	50,274120  	68,985131  	23,856028  	21,647585  	21,759738  	73,179795  	0,048165  	0,024405  	-3661,076188  	-9723,340914  	-0,013761  	-0,049983  	0,290180  	0,147036  	-3,569213  	9214,820865  	3992,712221  	0,579094  	-0,047937  
295,572000  	12,308293  	48,149783  	357,499067  	-242,047242  	80,291841  	74,501201  	0,004137  	0,008159  	0,003963  	0,004048  	0,004379  	0,000001  	-0,000000  	22,387043  	17,904277  	19,701828  	24,564302  	35,599055  	32,954792  	35,011415  	38,035878  	48,694328  	46,190384  	50,275317  	68,991350  	23,859118  	21,641667  	21,765554  	73,179710  	0,045906  	0,023261  	-3489,467316  	-30939,085228  	-0,051171  	-0,049993  	0,326406  	0,165392  	-4,015585  	8945,406981  	3883,342946  	0,563231  	-0,047945  
296,572000  	12,304681  	48,149659  	957,045375  	956,927186  	80,298778  	74,505006  	0,004137  	0,008226  	0,003960  	0,004048  	0,004362  	0,000000  	-0,000000  	22,388760  	17,900504  	19,710045  	24,562220  	35,595387  	32,955100  	35,010480  	38,040312  	48,694315  	46,192832  	50,277036  	68,992913  	23,860064  	21,622035  	21,762727  	73,176975  	0,045198  	0,022902  	-3435,923433  	-1,916899  	-0,013764  	-0,049995  	0,313134  	0,158667  	-3,854400  	9088,667655  	3880,193699  	0,562775  	-0,047947  
297,572000  	12,302997  	48,146968  	957,045375  	1256,670793  	80,301652  	74,499922  	0,004140  	0,008244  	0,003963  	0,004031  	0,004342  	0,000001  	-0,000000  	22,385133  	17,891767  	19,703560  	24,559529  	35,592422  	32,945602  	35,002563  	38,027728  	48,686041  	46,186933  	50,266670  	68,984106  	23,857686  	21,605438  	21,753960  	73,167072  	0,031883  	0,016155  	-2423,670743  	4415,978157  	-0,012268  	-0,049990  	0,297169  	0,150578  	-3,662909  	9127,529793  	3936,251718  	0,570905  	-0,047943  
298,574000  	12,301283  	48,148576  	357,499067  	657,183579  	80,293966  	74,498799  	0,004141  	0,008216  	0,003962  	0,004000  	0,004335  	0,000000  	-0,000000  	22,391521  	17,896268  	19,707075  	24,562438  	35,601641  	32,949272  	35,002899  	38,029344  	48,690552  	46,186076  	50,276174  	68,992210  	23,865047  	21,605280  	21,756097  	73,179647  	0,006535  	0,003311  	-496,789728  	7099,462714  	-0,021694  	-0,049994  	0,291611  	0,147761  	-3,590325  	9067,799408  	3966,254304  	0,575257  	-0,047947  
299,570000  	12,302110  	48,154888  	357,499067  	657,183579  	80,291248  	74,504819  	0,004142  	0,008218  	0,003963  	0,004064  	0,004324  	0,000001  	-0,000001  	22,395175  	17,904800  	19,715404  	24,564954  	35,611009  	32,955564  	35,005295  	38,038263  	48,699611  	46,190924  	50,285597  	68,997269  	23,872177  	21,599496  	21,766784  	73,190182  	0,058753  	0,029771  	-4467,380292  	7098,042751  	-0,021689  	-0,049983  	0,282613  	0,143202  	-3,474302  	9071,049416  	3977,721519  	0,576920  	-0,047937  
300,571000  	12,304987  	48,157611  	-242,047242  	1256,670793  	80,293060  	74,499454  	0,004139  	0,008234  	0,003962  	0,004058  	0,004352  	-0,000001  	-0,000000  	22,394287  	17,904800  	19,711338  	24,573421  	35,614018  	32,954356  	35,001675  	38,044874  	48,707141  	46,198142  	50,281747  	68,997748  	23,873557  	21,585554  	21,770388  	73,187223  	0,053372  	0,027044  	-4058,184973  	35514,064606  	-0,021700  	-0,050008  	0,305338  	0,154717  	-3,758320  	9105,935000  	3929,437763  	0,569917  	-0,047958  
301,575000  	12,304467  	48,157827  	1256,818530  	1256,670793  	80,290529  	74,487291  	0,004137  	0,008438  	0,003963  	0,004062  	0,004354  	0,000001  	-0,000000  	22,393228  	17,898408  	19,706176  	24,574520  	35,609643  	32,949067  	34,997165  	38,046753  	48,706564  	46,195065  	50,276131  	68,996886  	23,872733  	21,571994  	21,761809  	73,181493  	0,057233  	0,029000  	-4351,837861  	-1,993059  	-0,011066  	-0,049986  	0,306809  	0,155462  	-3,782697  	9546,980270  	3885,192953  	0,563500  	-0,047939  
302,571000  	12,301038  	48,152444  	1256,818530  	657,183579  	80,285655  	74,482425  	0,004138  	0,008277  	0,003962  	0,004040  	0,004400  	0,000001  	-0,000001  	22,393679  	17,900067  	19,710320  	24,571428  	35,607350  	32,946327  	34,999859  	38,041348  	48,701621  	46,185478  	50,274679  	68,994156  	23,873962  	21,567284  	21,753565  	73,180787  	0,039090  	0,019807  	-2972,172648  	-9723,293193  	-0,013761  	-0,049983  	0,343168  	0,173886  	-4,230973  	9198,825508  	3891,936297  	0,564478  	-0,047937  
303,573000  	12,298375  	48,144183  	1256,818530  	657,183579  	80,285342  	74,487384  	0,004140  	0,008215  	0,003963  	0,004048  	0,004341  	0,000001  	-0,000000  	22,394584  	17,908829  	19,711088  	24,574491  	35,608765  	32,947497  	35,001767  	38,042130  	48,704484  	46,188645  	50,277448  	68,998139  	23,879816  	21,571456  	21,755044  	73,187829  	0,045248  	0,022928  	-3439,843328  	-9724,849452  	-0,013763  	-0,049992  	0,296237  	0,150106  	-3,649036  	9064,690182  	3943,432850  	0,571947  	-0,047945  
