07/10/2020 12:45:03
Tempo T_f_e T_f_s AR AR T_q_e T_q_s Corrente_P_f Corrente_P_q Corrente_P_RESERVA Corrente_eletromag_f Corrente_eletromag_q AR AR T_1 T_2 T_3 T_4 T_5 T_6 T_7 T_8 T_9 T_10 T_11 T_12 T_13 T_14 T_15 T_16 Velocidade_f_(m/s) Vazao_f_(L/s) q_f_(W) AR AR AR Velocidade_q_(m/s) Vazao_q_(L/s) q_q_(W) DeltaP_q_(Pa) DeltaP_f_(Pa) DeltaP_f_(Psi) AR
0,009000  	13,525215  	51,030767  	57,725912  	57,696365  	79,888805  	75,919448  	0,004126  	0,012873  	0,003969  	0,004038  	0,004499  	0,000001  	-0,000000  	24,066283  	19,534585  	21,419189  	26,916302  	38,314344  	35,819141  	37,865040  	41,178772  	51,385406  	49,328485  	53,074517  	70,191935  	22,786609  	20,971811  	21,982265  	74,923683  	0,037691  	0,019099  	-2997,572146  	-1,524724  	-0,051169  	-0,049989  	0,421634  	0,213645  	-3,556504  	19110,168585  	3645,956050  	0,528801  	-0,047942  
2,546000  	13,526378  	51,031014  	657,272221  	657,183579  	79,888118  	75,916639  	0,004119  	0,012874  	0,003969  	0,004049  	0,004454  	-0,000000  	-0,000000  	24,068697  	19,536786  	21,431805  	26,915814  	38,318892  	35,824378  	37,860203  	41,171965  	51,381897  	49,333425  	53,074624  	70,180009  	22,799144  	20,987254  	21,974826  	74,917346  	0,046598  	0,023611  	-3705,794814  	-1,810733  	-0,018201  	-0,050002  	0,386036  	0,195607  	-3,257971  	19112,670822  	3497,362402  	0,507250  	-0,047953  
3,562000  	13,522153  	51,030921  	-242,047242  	-242,047242  	79,888836  	75,916265  	0,004125  	0,012870  	0,003966  	0,004085  	0,004538  	-0,000001  	-0,000000  	24,075329  	19,523818  	21,424530  	26,917140  	38,317060  	35,819923  	37,859740  	41,170919  	51,379128  	49,335575  	53,058682  	70,186524  	22,799252  	20,991103  	21,980910  	74,911122  	0,075167  	0,038088  	-5978,506804  	-0,000000  	-0,544592  	-0,050016  	0,452611  	0,229341  	-3,820881  	19103,868777  	3620,140693  	0,525057  	-0,047965  
4,546000  	13,517682  	51,031231  	-242,047242  	956,927186  	79,890211  	75,919198  	0,004120  	0,012904  	0,003966  	0,004025  	0,004448  	-0,000000  	-0,000000  	24,069334  	19,530166  	21,427872  	26,915787  	38,317434  	35,823875  	37,867076  	41,168002  	51,380635  	49,331719  	53,071099  	70,190016  	22,804836  	21,030418  	21,988516  	74,924118  	0,026952  	0,013657  	-2143,947271  	34193,813331  	-0,026854  	-0,050001  	0,380939  	0,193025  	-3,214580  	19176,537645  	3507,021978  	0,508651  	-0,047952  
5,552000  	13,520468  	51,031943  	1256,818530  	-242,047242  	79,891492  	75,923878  	0,004127  	0,012884  	0,003964  	0,004069  	0,004562  	-0,000002  	-0,000000  	24,060392  	19,520967  	21,418497  	26,914803  	38,310419  	35,809990  	37,853819  	41,170085  	51,376695  	49,324332  	53,060808  	70,170040  	22,796219  	21,025370  	21,978531  	74,911425  	0,062393  	0,031615  	-4962,865947  	-35522,026477  	-0,021702  	-0,050020  	0,471303  	0,238813  	-3,973718  	19133,398994  	3662,337787  	0,531177  	-0,047968  
6,547000  	13,525184  	51,032439  	1256,818530  	357,439972  	79,893179  	75,922693  	0,004125  	0,012859  	0,003964  	0,004023  	0,004402  	0,000001  	-0,000000  	24,062312  	19,526009  	21,421094  	26,910278  	38,309477  	35,814848  	37,859616  	41,166237  	51,369629  	49,320725  	53,063110  	70,172006  	22,790852  	21,040735  	21,975826  	74,904655  	0,025393  	0,012867  	-2019,572686  	-16230,440101  	-0,015671  	-0,049987  	0,344885  	0,174756  	-2,909945  	19078,915737  	3615,932281  	0,524447  	-0,047940  
7,550000  	13,529961  	51,033089  	1256,818530  	357,439972  	79,889867  	75,928122  	0,004122  	0,012862  	0,003965  	0,004074  	0,004486  	0,000001  	-0,000000  	24,073667  	19,526841  	21,427325  	26,924066  	38,303009  	35,816891  	37,864827  	41,179500  	51,380237  	49,327708  	53,068510  	70,178535  	22,800460  	21,053830  	21,978798  	74,912972  	0,066675  	0,033785  	-5302,293729  	-16232,130612  	-0,015673  	-0,049993  	0,410991  	0,208252  	-3,460085  	19087,020240  	3547,828036  	0,514569  	-0,047945  
8,549000  	13,529778  	51,033523  	1256,818530  	-242,047242  	79,888492  	75,933426  	0,004127  	0,012865  	0,003968  	0,004022  	0,004434  	0,000001  	-0,000000  	24,068494  	19,533384  	21,421283  	26,921480  	38,311603  	35,819884  	37,872847  	41,181092  	51,386688  	49,334493  	53,072275  	70,183834  	22,801605  	21,065088  	21,980444  	74,917195  	0,024353  	0,012340  	-1936,686956  	-35500,113287  	-0,021689  	-0,049985  	0,369787  	0,187374  	-3,107945  	19093,910765  	3664,371382  	0,531472  	-0,047939  
9,547000  	13,526256  	51,034390  	957,045375  	-242,047242  	79,892523  	75,925813  	0,004122  	0,012863  	0,003969  	0,004041  	0,004585  	0,000001  	-0,000000  	24,065585  	19,532809  	21,422473  	26,912460  	38,309477  	35,822350  	37,868380  	41,184352  	51,379343  	49,332286  	53,073570  	70,173750  	22,807723  	21,070955  	21,977601  	74,911501  	0,039702  	0,020117  	-3157,694780  	-34189,594878  	-0,026847  	-0,049993  	0,489231  	0,247897  	-4,123940  	19089,210493  	3549,155522  	0,514761  	-0,047945  
10,548000  	13,526685  	51,034513  	357,499067  	357,439972  	79,892585  	75,924128  	0,004125  	0,012864  	0,003968  	0,004075  	0,004527  	-0,000001  	-0,000000  	24,064381  	19,532564  	21,421895  	26,913800  	38,318749  	35,821452  	37,869890  	41,180584  	51,377553  	49,327241  	53,068611  	70,183578  	22,804410  	21,073118  	21,972065  	74,922828  	0,067580  	0,034243  	-5374,888646  	-1,685725  	-0,026860  	-0,050016  	0,443479  	0,224714  	-3,739919  	19089,835168  	3625,944912  	0,525899  	-0,047965  
11,549000  	13,527971  	51,034885  	1256,818530  	1256,670793  	79,894210  	75,921819  	0,004120  	0,012873  	0,003968  	0,004000  	0,004469  	0,000001  	-0,000000  	24,068919  	19,534589  	21,426922  	26,924963  	38,310794  	35,817364  	37,862172  	41,172596  	51,379637  	49,326592  	53,067079  	70,180739  	22,808191  	21,077405  	21,970881  	74,920635  	0,006597  	0,003343  	-524,673340  	-1,993142  	-0,011066  	-0,049988  	0,397519  	0,201426  	-3,355656  	19109,161182  	3518,941104  	0,510379  	-0,047941  
12,548000  	13,530237  	51,036248  	57,725912  	1256,670793  	79,892710  	75,918636  	0,004127  	0,012861  	0,003970  	0,003982  	0,004501  	0,000002  	-0,000000  	24,078805  	19,541437  	21,422991  	26,929451  	38,314360  	35,818667  	37,867447  	41,181733  	51,384952  	49,334245  	53,072880  	70,181758  	22,806303  	21,079755  	21,978336  	74,917949  	-0,008056  	-0,004082  	640,733241  	24478,845811  	-0,018192  	-0,049972  	0,423319  	0,214499  	-3,574955  	19085,146215  	3671,940874  	0,532570  	-0,047927  
13,549000  	13,530390  	51,036031  	957,045375  	1256,670793  	79,889149  	75,923348  	0,004121  	0,012838  	0,003968  	0,004077  	0,004536  	-0,000001  	-0,000000  	24,076890  	19,542945  	21,418980  	26,928675  	38,313729  	35,820855  	37,862686  	41,183158  	51,385789  	49,340059  	53,071582  	70,180630  	22,804269  	21,081449  	21,979529  	74,919909  	0,069409  	0,035170  	-5520,047326  	4417,886762  	-0,012274  	-0,050014  	0,450547  	0,228295  	-3,796980  	19034,337433  	3535,315779  	0,512754  	-0,047964  
14,547000  	13,531248  	51,038075  	357,499067  	657,183579  	79,887836  	75,924346  	0,004128  	0,012848  	0,003966  	0,004007  	0,004455  	0,000001  	-0,000000  	24,072058  	19,540318  	21,418430  	26,923375  	38,311874  	35,823857  	37,861853  	41,178581  	51,382979  	49,338762  	53,069549  	70,178824  	22,802294  	21,086248  	21,980328  	74,917889  	0,012530  	0,006349  	-996,565714  	7098,876739  	-0,021692  	-0,049990  	0,386722  	0,195955  	-3,257196  	19055,672594  	3675,979819  	0,533156  	-0,047943  
15,549000  	13,532993  	51,037703  	1256,818530  	657,183579  	79,888805  	75,920228  	0,004117  	0,012859  	0,003967  	0,004027  	0,004620  	-0,000000  	-0,000000  	24,071653  	19,536444  	21,421329  	26,915973  	38,318110  	35,825191  	37,867488  	41,180893  	51,376019  	49,331639  	53,071710  	70,176612  	22,798623  	21,092598  	21,979689  	74,911175  	0,028840  	0,014613  	-2293,536231  	-9726,546736  	-0,013766  	-0,050002  	0,517593  	0,262268  	-4,365057  	19079,785188  	3451,451174  	0,500591  	-0,047953  
16,546000  	13,533054  	51,037022  	1256,818530  	1256,670793  	79,890929  	75,922786  	0,004128  	0,012875  	0,003968  	0,004027  	0,004423  	-0,000000  	-0,000000  	24,077882  	19,533576  	21,423976  	26,916230  	38,320333  	35,825910  	37,867694  	41,181838  	51,372392  	49,329453  	53,069674  	70,175931  	22,793889  	21,103356  	21,978818  	74,907774  	0,028679  	0,014532  	-2280,750458  	-1,993690  	-0,011069  	-0,050004  	0,361460  	0,183155  	-3,048000  	19114,492496  	3693,964424  	0,535764  	-0,047955  
17,548000  	13,533361  	51,036155  	57,725912  	1256,670793  	79,891866  	75,919885  	0,004118  	0,012821  	0,003964  	0,004076  	0,004495  	0,000000  	-0,000000  	24,087669  	19,539981  	21,426697  	26,918606  	38,323366  	35,832794  	37,882005  	41,184945  	51,382322  	49,337662  	53,068664  	70,185887  	22,786003  	21,110151  	21,988745  	74,919364  	0,068534  	0,034727  	-5450,031984  	24490,124965  	-0,018200  	-0,049998  	0,418519  	0,212067  	-3,532561  	18996,972958  	3464,005798  	0,502412  	-0,047950  
18,548000  	13,534340  	51,036712  	1256,818530  	657,183579  	79,889617  	75,915828  	0,004129  	0,012843  	0,003967  	0,003985  	0,004499  	0,000000  	-0,000000  	24,076625  	19,540611  	21,434503  	26,918785  	38,311807  	35,829908  	37,875332  	41,185049  	51,384662  	49,336609  	53,067506  	70,177430  	22,792284  	21,097481  	21,985927  	74,925087  	-0,005616  	-0,002846  	446,615848  	-9725,153582  	-0,013764  	-0,049994  	0,421510  	0,213582  	-3,559420  	19044,406514  	3705,812938  	0,537483  	-0,047946  
19,545000  	13,532595  	51,035690  	1256,818530  	-242,047242  	79,885774  	75,914705  	0,004119  	0,012884  	0,003964  	0,004048  	0,004452  	0,000001  	-0,000000  	24,067460  	19,531039  	21,414325  	26,920653  	38,309938  	35,818935  	37,866166  	41,182340  	51,379430  	49,328778  	53,059385  	70,176576  	22,796441  	21,077553  	21,976978  	74,916026  	0,045154  	0,022880  	-3590,852490  	-35501,236640  	-0,021689  	-0,049987  	0,384439  	0,194798  	-3,244154  	19134,046307  	3487,858171  	0,505871  	-0,047940  
20,548000  	13,528002  	51,034947  	1256,818530  	956,927186  	79,886524  	75,920384  	0,004125  	0,012883  	0,003967  	0,004023  	0,004478  	0,000001  	-0,000000  	24,068344  	19,528144  	21,420305  	26,919144  	38,308992  	35,817782  	37,866546  	41,175942  	51,374488  	49,325022  	53,049970  	70,175332  	22,800481  	21,051212  	21,975470  	74,918005  	0,025335  	0,012838  	-2014,970138  	-4420,058993  	-0,012269  	-0,049993  	0,404605  	0,205016  	-3,410096  	19131,286560  	3625,026970  	0,525766  	-0,047945  
21,548000  	13,522061  	51,035381  	57,725912  	1256,670793  	79,885931  	75,922287  	0,004121  	0,012877  	0,003965  	0,004086  	0,004520  	-0,000000  	-0,000000  	24,064107  	19,527626  	21,426660  	26,919499  	38,306664  	35,819135  	37,859792  	41,183746  	51,369867  	49,319518  	53,051719  	70,172863  	22,803339  	21,019724  	21,976943  	74,923188  	0,076582  	0,038804  	-6091,747390  	24491,794689  	-0,018202  	-0,050002  	0,438408  	0,222144  	-3,692665  	19119,197720  	3525,267843  	0,511297  	-0,047953  
22,547000  	13,516916  	51,035442  	657,272221  	1256,670793  	79,886368  	75,917045  	0,004127  	0,012872  	0,003964  	0,004070  	0,004544  	0,000000  	-0,000000  	24,070096  	19,533342  	21,425302  	26,912843  	38,316189  	35,821478  	37,867346  	41,185066  	51,375939  	49,329319  	53,060664  	70,168931  	22,805344  	20,996362  	21,975433  	74,919186  	0,063095  	0,031971  	-5019,643743  	9722,051486  	-0,013765  	-0,049997  	0,457118  	0,231625  	-3,855777  	19107,374880  	3666,058983  	0,531717  	-0,047949  
23,549000  	13,510393  	51,035907  	657,272221  	1256,670793  	79,886306  	75,919198  	0,004123  	0,012826  	0,003966  	0,004085  	0,004411  	0,000001  	-0,000000  	24,066764  	19,531471  	21,430378  	26,916512  	38,313887  	35,821224  	37,862689  	41,182061  	51,374527  	49,335654  	53,056729  	70,169720  	22,833255  	20,961511  	21,976832  	74,918230  	0,075781  	0,038399  	-6029,997835  	9719,578779  	-0,013761  	-0,049983  	0,351444  	0,178079  	-2,962764  	19007,847820  	3578,706197  	0,519047  	-0,047937  
24,546000  	13,503105  	51,036155  	1256,818530  	57,696365  	79,889430  	75,919697  	0,004124  	0,012886  	0,003967  	0,004030  	0,004573  	-0,000001  	-0,000000  	24,067982  	19,534103  	21,418985  	26,909099  	38,320658  	35,820255  	37,874284  	41,170473  	51,371668  	49,323598  	53,056625  	70,179054  	22,832390  	20,922811  	21,971952  	74,918163  	0,031269  	0,015844  	-2488,667567  	-24499,789972  	-0,018205  	-0,050015  	0,479873  	0,243155  	-4,048127  	19137,589905  	3600,482609  	0,522206  	-0,047964  
25,549000  	13,502921  	51,037300  	1256,818530  	1256,670793  	79,883431  	75,912864  	0,004123  	0,012858  	0,003966  	0,004094  	0,004514  	0,000001  	-0,000000  	24,062988  	19,535569  	21,430081  	26,934821  	38,314999  	35,809123  	37,862097  	41,175726  	51,375437  	49,335492  	53,066394  	70,171463  	22,857407  	20,888393  	21,976838  	74,917941  	0,082952  	0,042032  	-6602,165817  	-1,993287  	-0,011067  	-0,049992  	0,433020  	0,219414  	-3,653651  	19077,580079  	3567,005966  	0,517350  	-0,047945  
26,546000  	13,508556  	51,037362  	1256,818530  	657,183579  	79,878558  	75,914923  	0,004122  	0,012866  	0,003966  	0,004066  	0,004452  	0,000001  	-0,000001  	24,063720  	19,528072  	21,406990  	26,908308  	38,296639  	35,817520  	37,864789  	41,183153  	51,373067  	49,323580  	53,044964  	70,174880  	22,843186  	20,837032  	21,969267  	74,920282  	0,059956  	0,030380  	-4771,206548  	-9724,595892  	-0,013763  	-0,049991  	0,384551  	0,194855  	-3,239027  	19094,042350  	3553,385117  	0,515375  	-0,047943  
27,547000  	13,513058  	51,037269  	357,499067  	657,183579  	79,881557  	75,916109  	0,004126  	0,012843  	0,003966  	0,004151  	0,004567  	-0,000002  	-0,000000  	24,074305  	19,540553  	21,437695  	26,933794  	38,311605  	35,834381  	37,862704  	41,172177  	51,376155  	49,338188  	53,060023  	70,178876  	22,874119  	20,825191  	21,971546  	74,925843  	0,128607  	0,065166  	-10233,126132  	7103,121029  	-0,021705  	-0,050023  	0,475400  	0,240889  	-4,006068  	19045,156407  	3632,716500  	0,526881  	-0,047971  
28,548000  	13,515691  	51,037641  	-242,047242  	1256,670793  	79,884619  	75,917295  	0,004120  	0,012859  	0,003968  	0,003981  	0,004506  	0,000002  	-0,000000  	24,074038  	19,530495  	21,428897  	26,929019  	38,315847  	35,828418  	37,872942  	41,184697  	51,376457  	49,326569  	53,057124  	70,175565  	22,868927  	20,802208  	21,971234  	74,915875  	-0,008781  	-0,004450  	698,672389  	35494,141040  	-0,021688  	-0,049977  	0,427233  	0,216482  	-3,601884  	19080,813815  	3518,729271  	0,510349  	-0,047931  
29,548000  	13,519060  	51,037424  	1256,818530  	1256,670793  	79,884900  	75,913894  	0,004125  	0,012851  	0,003964  	0,004093  	0,004612  	-0,000000  	-0,000000  	24,087821  	19,545417  	21,446391  	26,930918  	38,326272  	35,838032  	37,880696  	41,196278  	51,385577  	49,342890  	53,056132  	70,192064  	22,897369  	20,809514  	21,989901  	74,932914  	0,081629  	0,041362  	-6494,097470  	-1,993636  	-0,011069  	-0,050002  	0,510605  	0,258728  	-4,308763  	19063,674517  	3622,421426  	0,525388  	-0,047953  
30,547000  	13,520468  	51,037796  	1256,818530  	657,183579  	79,888836  	75,911772  	0,004118  	0,012898  	0,003967  	0,003973  	0,004554  	-0,000000  	-0,000000  	24,076180  	19,541406  	21,430137  	26,922904  	38,326070  	35,825788  	37,884099  	41,190950  	51,378937  	49,334724  	53,054907  	70,182916  	22,888311  	20,785622  	21,983630  	74,925612  	-0,015544  	-0,007876  	1236,619662  	-9726,804570  	-0,013766  	-0,050003  	0,464781  	0,235508  	-3,928054  	19165,079847  	3477,040576  	0,504302  	-0,047954  
31,551000  	13,517161  	51,038446  	1256,818530  	657,183579  	79,886056  	75,915391  	0,004127  	0,012858  	0,003968  	0,004118  	0,004625  	-0,000001  	-0,000000  	24,071453  	19,529124  	21,427310  	26,928739  	38,320744  	35,829305  	37,864693  	41,177485  	51,372800  	49,332263  	53,051939  	70,181685  	22,883851  	20,788322  	21,978112  	74,924248  	0,102141  	0,051756  	-8126,653835  	-9728,847293  	-0,013769  	-0,050015  	0,521531  	0,264264  	-4,400583  	19078,814572  	3666,157838  	0,531731  	-0,047964  
32,547000  	13,511833  	51,038880  	57,725912  	1256,670793  	79,882307  	75,916203  	0,004120  	0,012869  	0,003966  	0,004154  	0,004560  	0,000000  	-0,000000  	24,080120  	19,535452  	21,425623  	26,931591  	38,321453  	35,839448  	37,878609  	41,197861  	51,379634  	49,340588  	53,060613  	70,184610  	22,881288  	20,800053  	21,991533  	74,928353  	0,131705  	0,066736  	-10480,429922  	24490,878224  	-0,018201  	-0,049999  	0,469411  	0,237854  	-3,956257  	19100,766626  	3513,574673  	0,509601  	-0,047951  
33,549000  	13,508403  	51,038291  	1256,818530  	-242,047242  	79,883431  	75,912240  	0,004126  	0,012887  	0,003968  	0,004006  	0,004532  	-0,000001  	-0,000000  	24,076085  	19,535971  	21,426512  	26,927485  	38,318993  	35,822095  	37,865683  	41,184619  	51,364509  	49,336263  	53,056614  	70,172095  	22,860620  	20,816807  	21,987927  	74,923978  	0,011645  	0,005900  	-926,690728  	-35515,083529  	-0,021698  	-0,050009  	0,447781  	0,226894  	-3,778793  	19139,481616  	3634,615934  	0,527156  	-0,047959  
34,547000  	13,506627  	51,038663  	1256,818530  	357,439972  	79,882807  	75,918293  	0,004120  	0,012794  	0,003966  	0,004072  	0,004537  	-0,000001  	-0,000000  	24,069678  	19,538049  	21,436057  	26,930185  	38,312809  	35,817128  	37,868984  	41,184830  	51,374352  	49,337611  	53,054754  	70,166917  	22,861540  	20,834731  	21,987960  	74,923205  	0,065207  	0,033041  	-5189,574833  	-16238,519365  	-0,015679  	-0,050015  	0,451371  	0,228713  	-3,802683  	18939,874272  	3501,309554  	0,507822  	-0,047964  
35,550000  	13,505065  	51,037827  	357,499067  	357,439972  	79,884494  	75,915984  	0,004124  	0,012890  	0,003969  	0,003956  	0,004458  	0,000000  	-0,000000  	24,067392  	19,535643  	21,430335  	26,925845  	38,318046  	35,831169  	37,873537  	41,181219  	51,368171  	49,335098  	53,051067  	70,169054  	22,851425  	20,849036  	21,980297  	74,918942  	-0,029224  	-0,014808  	2325,843438  	-1,685168  	-0,026851  	-0,049997  	0,388708  	0,196961  	-3,278063  	19146,036812  	3605,849040  	0,522984  	-0,047949  
36,548000  	13,505555  	51,039004  	-242,047242  	956,927186  	79,882369  	75,907560  	0,004119  	0,012869  	0,003968  	0,003995  	0,004537  	-0,000001  	-0,000000  	24,061249  	19,527547  	21,423622  	26,921892  	38,308376  	35,821660  	37,863753  	41,174046  	51,361053  	49,326814  	53,041594  	70,164440  	22,845256  	20,848487  	21,975604  	74,914831  	0,002673  	0,001355  	-212,756162  	34199,752730  	-0,026858  	-0,050011  	0,451206  	0,228629  	-3,811159  	19100,908822  	3500,236267  	0,507666  	-0,047960  
37,546000  	13,509260  	51,036898  	1256,818530  	57,696365  	79,880089  	75,907248  	0,004125  	0,012861  	0,003967  	0,004047  	0,004477  	0,000001  	-0,000000  	24,068229  	19,527268  	21,423655  	26,917200  	38,312590  	35,825084  	37,865093  	41,180431  	51,359948  	49,327062  	53,042810  	70,170994  	22,834967  	20,868850  	21,978573  	74,920067  	0,044897  	0,022750  	-3572,747655  	-24487,670323  	-0,018196  	-0,049987  	0,404245  	0,204834  	-3,412812  	19084,810886  	3611,250777  	0,523768  	-0,047940  
38,547000  	13,513670  	51,037269  	1256,818530  	1256,670793  	79,883213  	75,911616  	0,004119  	0,012813  	0,003967  	0,004061  	0,004614  	-0,000001  	-0,000000  	24,068202  	19,532859  	21,425833  	26,926606  	38,314680  	35,827030  	37,864464  	41,183497  	51,361367  	49,328375  	53,050096  	70,170570  	22,831552  	20,887525  	21,975545  	74,920824  	0,056011  	0,028381  	-4456,685104  	-1,993970  	-0,011071  	-0,050012  	0,512359  	0,259616  	-4,324204  	18981,422584  	3496,211444  	0,507083  	-0,047961  
39,549000  	13,515507  	51,035969  	1256,818530  	1256,670793  	79,882525  	75,916171  	0,004123  	0,012859  	0,003966  	0,004046  	0,004481  	0,000002  	-0,000000  	24,060068  	19,530218  	21,417372  	26,927176  	38,309230  	35,819624  	37,861922  	41,178252  	51,361393  	49,322593  	53,043131  	70,165734  	22,823241  	20,887163  	21,970992  	74,912930  	0,043732  	0,022159  	-3479,352136  	-1,992724  	-0,011064  	-0,049977  	0,406836  	0,206147  	-3,429084  	19079,874326  	3586,042673  	0,520112  	-0,047931  
40,548000  	13,517590  	51,036217  	57,725912  	1256,670793  	79,877839  	75,908496  	0,004123  	0,012874  	0,003965  	0,004096  	0,004608  	-0,000001  	-0,000000  	24,064321  	19,530483  	21,420310  	26,926452  	38,314090  	35,821091  	37,863714  	41,182118  	51,363173  	49,326652  	53,043195  	70,170203  	22,822308  	20,898007  	21,974944  	74,912134  	0,084670  	0,042903  	-6736,115520  	24495,282995  	-0,018204  	-0,050010  	0,508111  	0,257464  	-4,285915  	19112,145190  	3584,404500  	0,519874  	-0,047960  
41,550000  	13,521693  	51,035288  	1256,818530  	1256,670793  	79,876246  	75,910430  	0,004123  	0,012862  	0,003968  	0,004070  	0,004462  	-0,000000  	-0,000000  	24,066739  	19,532837  	21,425380  	26,924332  	38,317833  	35,823492  	37,866830  	41,187097  	51,363830  	49,330019  	53,046414  	70,170967  	22,825695  	20,914243  	21,979452  	74,915278  	0,063535  	0,032194  	-5053,999491  	-1,993567  	-0,011068  	-0,050000  	0,392270  	0,198766  	-3,305860  	19085,812629  	3578,833297  	0,519066  	-0,047952  
42,548000  	13,526960  	51,035845  	1256,818530  	657,183579  	79,879432  	75,908496  	0,004124  	0,012852  	0,003967  	0,004073  	0,004491  	-0,000000  	-0,000000  	24,061646  	19,529745  	21,418821  	26,920494  	38,313070  	35,820811  	37,872541  	41,185455  	51,362814  	49,326093  	53,044489  	70,165096  	22,818801  	20,921876  	21,980991  	74,916677  	0,065473  	0,033176  	-5207,512743  	-9726,422093  	-0,013766  	-0,050001  	0,415333  	0,210452  	-3,504741  	19065,316500  	3590,081619  	0,520697  	-0,047952  
43,547000  	13,531094  	51,035009  	1256,818530  	-242,047242  	79,880245  	75,906312  	0,004122  	0,012864  	0,003969  	0,004111  	0,004488  	0,000002  	-0,000000  	24,064917  	19,533167  	21,425447  	26,930210  	38,310135  	35,820456  	37,874594  	41,187599  	51,368215  	49,329822  	53,050822  	70,166206  	22,816120  	20,932524  	21,980888  	74,920901  	0,096404  	0,048849  	-7666,634095  	-35496,072336  	-0,021686  	-0,049979  	0,413048  	0,209295  	-3,488088  	19091,100082  	3544,855316  	0,514138  	-0,047933  
44,547000  	13,533851  	51,034142  	57,725912  	-242,047242  	79,882619  	75,908933  	0,004124  	0,012866  	0,003967  	0,003996  	0,004573  	0,000001  	-0,000000  	24,065640  	19,532188  	21,430448  	26,923693  	38,306093  	35,818907  	37,872172  	41,181458  	51,365946  	49,322492  	53,045538  	70,168905  	22,807814  	20,933019  	21,973834  	74,918444  	0,003087  	0,001564  	-245,482084  	-27694,478066  	-0,093542  	-0,049989  	0,480396  	0,243420  	-4,056576  	19095,682210  	3589,707381  	0,520643  	-0,047942  
45,551000  	13,529502  	51,033027  	57,725912  	57,696365  	79,884337  	75,908558  	0,004121  	0,012855  	0,003967  	0,003985  	0,004464  	-0,000000  	-0,000000  	24,061902  	19,524467  	21,429796  	26,925981  	38,304667  	35,815146  	37,872192  	41,171464  	51,356651  	49,315759  	53,047655  	70,167661  	22,810171  	20,926510  	21,970494  	74,914005  	-0,005886  	-0,002982  	468,074806  	-1,525134  	-0,051183  	-0,050004  	0,393907  	0,199596  	-3,327991  	19072,146185  	3527,209644  	0,511579  	-0,047955  
46,548000  	13,527542  	51,033275  	657,272221  	1256,670793  	79,883713  	75,912677  	0,004129  	0,012869  	0,003965  	0,004087  	0,004480  	0,000000  	-0,000000  	24,063657  	19,533849  	21,421663  	26,930267  	38,317436  	35,822252  	37,876878  	41,182020  	51,366043  	49,325922  	53,049191  	70,181649  	22,814187  	20,922087  	21,973736  	74,917464  	0,077475  	0,039257  	-6161,568937  	9722,272200  	-0,013765  	-0,049998  	0,406549  	0,206001  	-3,430701  	19102,165954  	3714,822893  	0,538790  	-0,047950  
47,549000  	13,526715  	51,033182  	657,272221  	1256,670793  	79,882338  	75,913831  	0,004118  	0,012851  	0,003966  	0,003986  	0,004496  	0,000000  	-0,000000  	24,064133  	19,546147  	21,425219  	26,936854  	38,317866  	35,827974  	37,877686  	41,179513  	51,365306  	49,327821  	53,048803  	70,176277  	22,812181  	20,897002  	21,971636  	74,922305  	-0,004626  	-0,002344  	367,914655  	9721,840028  	-0,013765  	-0,049996  	0,419308  	0,212467  	-3,536122  	19063,200528  	3478,445733  	0,504506  	-0,047948  
48,548000  	13,525674  	51,032253  	1256,818530  	57,696365  	79,882275  	75,914767  	0,004128  	0,012860  	0,003965  	0,004119  	0,004525  	0,000000  	-0,000000  	24,060681  	19,531705  	21,422513  	26,924951  	38,311520  	35,811591  	37,864104  	41,177255  	51,357365  	49,316256  	53,039867  	70,163924  	22,795210  	20,864927  	21,961091  	74,910350  	0,102651  	0,052014  	-8163,965760  	-24493,300570  	-0,018200  	-0,050000  	0,441752  	0,223839  	-3,724461  	19081,800702  	3690,447999  	0,535254  	-0,047951  
49,550000  	13,527787  	51,032408  	957,045375  	956,927186  	79,882900  	75,914705  	0,004117  	0,012820  	0,003968  	0,003968  	0,004496  	0,000001  	-0,000000  	24,064635  	19,526831  	21,425903  	26,923682  	38,313217  	35,819529  	37,873040  	41,181702  	51,353579  	49,320919  	53,040975  	70,169510  	22,786528  	20,840007  	21,969112  	74,913034  	-0,019587  	-0,009925  	1557,693309  	-1,916681  	-0,013763  	-0,049988  	0,419081  	0,212351  	-3,533928  	18996,745868  	3448,584370  	0,500175  	-0,047941  
50,546000  	13,530604  	51,031665  	357,499067  	-242,047242  	79,884525  	75,913582  	0,004129  	0,012881  	0,003965  	0,004068  	0,004484  	0,000001  	-0,000000  	24,052630  	19,522843  	21,414890  	26,920019  	38,305419  	35,809482  	37,861279  	41,170106  	51,348313  	49,314581  	53,031410  	70,162960  	22,785793  	20,805598  	21,963565  	74,897394  	0,061936  	0,031383  	-4925,143959  	-30938,847304  	-0,051170  	-0,049992  	0,409282  	0,207386  	-3,453685  	19127,988446  	3714,060295  	0,538679  	-0,047945  
51,549000  	13,532626  	51,030828  	357,499067  	657,183579  	79,886212  	75,913862  	0,004118  	0,012857  	0,003966  	0,004020  	0,004495  	0,000001  	-0,000000  	24,067478  	19,538965  	21,431149  	26,922391  	38,316979  	35,828478  	37,871926  	41,179237  	51,354109  	49,315037  	53,028758  	70,179431  	22,798242  	20,781563  	21,969612  	74,911684  	0,022671  	0,011488  	-1802,657538  	7098,380194  	-0,021690  	-0,049986  	0,418380  	0,211996  	-3,531711  	19075,645213  	3464,344730  	0,502461  	-0,047939  
52,547000  	13,533606  	51,031757  	957,045375  	1256,670793  	79,884587  	75,914923  	0,004128  	0,012849  	0,003964  	0,004024  	0,004547  	-0,000000  	-0,000000  	24,067232  	19,537161  	21,434826  	26,930249  	38,314476  	35,815742  	37,860964  	41,179358  	51,360507  	49,322744  	53,042265  	70,162126  	22,803670  	20,769664  	21,969271  	74,906413  	0,026303  	0,013328  	-2091,475807  	4417,114070  	-0,012271  	-0,050004  	0,459485  	0,232824  	-3,876071  	19058,094182  	3690,017272  	0,535192  	-0,047955  
53,551000  	13,533697  	51,031231  	-242,047242  	956,927186  	79,881588  	75,913706  	0,004120  	0,012858  	0,003967  	0,004079  	0,004524  	0,000001  	-0,000000  	24,065269  	19,531945  	21,425937  	26,921866  	38,325088  	35,828184  	37,870648  	41,179037  	51,366727  	49,316103  	53,034593  	70,173304  	22,806892  	20,739089  	21,967176  	74,917364  	0,070567  	0,035757  	-5610,934202  	34185,199702  	-0,026847  	-0,049987  	0,440962  	0,223439  	-3,718149  	19078,001716  	3501,733219  	0,507883  	-0,047940  
54,548000  	13,532717  	51,031169  	357,499067  	-242,047242  	79,880089  	75,912146  	0,004127  	0,012857  	0,003967  	0,004061  	0,004483  	-0,000001  	-0,000000  	24,060571  	19,532568  	21,439976  	26,932077  	38,310917  	35,818935  	37,860322  	41,174063  	51,359193  	49,329802  	53,045577  	70,168747  	22,818161  	20,740599  	21,968462  	74,913668  	0,055877  	0,028313  	-4442,998417  	-30953,233805  	-0,051194  	-0,050018  	0,408533  	0,207007  	-3,444762  	19075,454203  	3669,815484  	0,532262  	-0,047967  
55,551000  	13,531615  	51,030797  	357,499067  	-242,047242  	79,877777  	75,913706  	0,004121  	0,012852  	0,003967  	0,004053  	0,004501  	-0,000000  	-0,000000  	24,059145  	19,522830  	21,426161  	26,917538  	38,307886  	35,811241  	37,860355  	41,178738  	51,353767  	49,318813  	53,033094  	70,166200  	22,800038  	20,719479  	21,956292  	74,910746  	0,049886  	0,025278  	-3966,746014  	-30944,557492  	-0,051180  	-0,050003  	0,423268  	0,214473  	-3,565525  	19064,615421  	3543,563136  	0,513950  	-0,047954  
56,548000  	13,531003  	51,031231  	-242,047242  	-242,047242  	79,876090  	75,913020  	0,004127  	0,012700  	0,003964  	0,004071  	0,004457  	-0,000001  	-0,000000  	24,072120  	19,533687  	21,439384  	26,934288  	38,309496  	35,826960  	37,867895  	41,176181  	51,356714  	49,330146  	53,049848  	70,173519  	22,826121  	20,732754  	21,960358  	74,911923  	0,064506  	0,032686  	-5129,409083  	-0,000000  	-0,544608  	-0,050018  	0,388585  	0,196899  	-3,272538  	18737,916085  	3672,745838  	0,532687  	-0,047967  
57,550000  	13,533299  	51,031881  	957,045375  	1256,670793  	79,877683  	75,912989  	0,004121  	0,012914  	0,003969  	0,004047  	0,004523  	0,000001  	-0,000000  	24,067087  	19,536032  	21,432991  	26,924169  	38,316815  	35,815351  	37,871950  	41,179201  	51,363228  	49,321008  	53,044015  	70,171591  	22,820442  	20,734094  	21,967525  	74,907284  	0,044891  	0,022747  	-3569,506059  	4415,908618  	-0,012268  	-0,049989  	0,440140  	0,223022  	-3,708231  	19199,037969  	3530,959084  	0,512122  	-0,047942  
58,546000  	13,532136  	51,031881  	-242,047242  	1256,670793  	79,881120  	75,907372  	0,004124  	0,012920  	0,003963  	0,004057  	0,004533  	0,000000  	-0,000000  	24,071597  	19,537186  	21,435451  	26,918254  	38,314863  	35,823758  	37,867141  	41,176018  	51,355343  	49,323083  	53,044784  	70,179088  	22,819566  	20,736551  	21,969128  	74,904396  	0,052683  	0,026695  	-4189,197656  	35508,063094  	-0,021696  	-0,049999  	0,448282  	0,227148  	-3,785455  	19212,232547  	3606,166789  	0,523030  	-0,047950  
59,551000  	13,530758  	51,032810  	-242,047242  	357,439972  	79,884900  	75,906592  	0,004121  	0,012852  	0,003968  	0,004034  	0,004491  	0,000001  	-0,000000  	24,067426  	19,541481  	21,442646  	26,924225  	38,316488  	35,823560  	37,872714  	41,187174  	51,362878  	49,328090  	53,049109  	70,183798  	22,821527  	20,760048  	21,982552  	74,913400  	0,033994  	0,017225  	-2703,242058  	30939,058835  	-0,051176  	-0,049994  	0,415435  	0,210504  	-3,512106  	19065,663856  	3540,908165  	0,513565  	-0,047946  
60,547000  	13,532962  	51,032686  	957,045375  	956,927186  	79,886837  	75,913082  	0,004121  	0,012828  	0,003967  	0,004052  	0,004483  	0,000000  	-0,000000  	24,072049  	19,551684  	21,446363  	26,933781  	38,323428  	35,830104  	37,871207  	41,189297  	51,366716  	49,329604  	53,051848  	70,187163  	22,831824  	20,781366  	21,986197  	74,920201  	0,048500  	0,024575  	-3856,588905  	-1,916956  	-0,013765  	-0,049996  	0,408454  	0,206967  	-3,449141  	19012,346470  	3524,731200  	0,511219  	-0,047948  
61,550000  	13,538781  	51,032377  	57,725912  	1256,670793  	79,888711  	75,913051  	0,004124  	0,012869  	0,003970  	0,003969  	0,004563  	-0,000000  	-0,000000  	24,067898  	19,538561  	21,436302  	26,933007  	38,313386  	35,825670  	37,865075  	41,173136  	51,362820  	49,323209  	53,049022  	70,177273  	22,836653  	20,787889  	21,972545  	74,907773  	-0,018752  	-0,009502  	1490,845543  	24493,677836  	-0,018203  	-0,050006  	0,472069  	0,239201  	-3,988242  	19101,777566  	3604,097889  	0,522730  	-0,047956  
62,548000  	13,537801  	51,032315  	1256,818530  	1256,670793  	79,891898  	75,915735  	0,004120  	0,012883  	0,003967  	0,004014  	0,004460  	0,000002  	-0,000000  	24,068503  	19,538057  	21,432170  	26,927349  	38,309027  	35,826780  	37,860131  	41,177950  	51,355835  	49,318455  	53,038735  	70,169273  	22,826469  	20,806580  	21,961465  	74,901207  	0,017803  	0,009021  	-1415,422384  	-1,992780  	-0,011064  	-0,049978  	0,390573  	0,197906  	-3,300148  	19130,721310  	3517,020486  	0,510101  	-0,047933  
63,546000  	13,533391  	51,032408  	1256,818530  	1256,670793  	79,889055  	75,921195  	0,004127  	0,012738  	0,003966  	0,004061  	0,004552  	-0,000002  	-0,000000  	24,064798  	19,537730  	21,431247  	26,927149  	38,303389  	35,822102  	37,861067  	41,174071  	51,356207  	49,321916  	53,039663  	70,167239  	22,833217  	20,837788  	21,960169  	74,900920  	0,056207  	0,028481  	-4469,345084  	-1,994257  	-0,011072  	-0,050020  	0,463682  	0,234951  	-3,909703  	18818,996487  	3666,207266  	0,531738  	-0,047968  
64,548000  	13,534371  	51,032779  	1256,818530  	1256,670793  	79,887805  	75,925563  	0,004117  	0,012941  	0,003967  	0,004003  	0,004499  	0,000001  	-0,000000  	24,071826  	19,540911  	21,432648  	26,925559  	38,306373  	35,817692  	37,866967  	41,169394  	51,356978  	49,320087  	53,042176  	70,169003  	22,835796  	20,864633  	21,966432  	74,901394  	0,009447  	0,004787  	-751,163289  	-1,993270  	-0,011067  	-0,049992  	0,421629  	0,213643  	-3,550089  	19257,628659  	3451,747740  	0,500634  	-0,047944  
65,551000  	13,539791  	51,032470  	1256,818530  	1256,670793  	79,893366  	75,916671  	0,004128  	0,012726  	0,003969  	0,004078  	0,004565  	-0,000001  	-0,000000  	24,070539  	19,536810  	21,433351  	26,919590  	38,305643  	35,811725  	37,859753  	41,167111  	51,351384  	49,314973  	53,035512  	70,162595  	22,839219  	20,878980  	21,971375  	74,901352  	0,070174  	0,035558  	-5578,964148  	-1,994077  	-0,011071  	-0,050015  	0,473771  	0,240063  	-4,003665  	18793,357224  	3674,772372  	0,532981  	-0,047964  
66,548000  	13,543527  	51,033151  	657,272221  	1256,670793  	79,894428  	75,915922  	0,004118  	0,012915  	0,003965  	0,004041  	0,004489  	0,000001  	-0,000000  	24,066147  	19,533623  	21,427736  	26,916545  	38,303832  	35,814832  	37,858041  	41,167814  	51,351325  	49,314372  	53,037490  	70,163917  	22,844022  	20,891681  	21,969854  	74,896766  	0,039960  	0,020248  	-3176,616268  	9720,192506  	-0,013762  	-0,049986  	0,413732  	0,209641  	-3,497888  	19199,806963  	3463,151405  	0,502288  	-0,047940  
67,550000  	13,545273  	51,033430  	657,272221  	1256,670793  	79,896990  	75,921819  	0,004126  	0,012882  	0,003965  	0,004041  	0,004473  	-0,000001  	-0,000000  	24,071643  	19,535730  	21,429839  	26,918232  	38,309046  	35,822990  	37,867242  	41,172988  	51,355394  	49,321644  	53,042620  	70,170366  	22,847011  	20,908297  	21,968849  	74,894093  	0,039740  	0,020136  	-3158,983364  	9724,739923  	-0,013769  	-0,050012  	0,401080  	0,203230  	-3,388083  	19129,962928  	3649,846713  	0,529366  	-0,047962  
68,548000  	13,545640  	51,033430  	57,725912  	1256,670793  	79,898490  	75,927061  	0,004120  	0,012864  	0,003971  	0,003990  	0,004467  	0,000001  	-0,000000  	24,070923  	19,535860  	21,432140  	26,920302  	38,307686  	35,820397  	37,869484  	41,176084  	51,358611  	49,325136  	53,036161  	70,169982  	22,854953  	20,919104  	21,971098  	74,899902  	-0,001356  	-0,000687  	107,775258  	24484,656665  	-0,018196  	-0,049985  	0,396429  	0,200874  	-3,345645  	19090,714524  	3514,852731  	0,509786  	-0,047939  
69,547000  	13,545794  	51,034606  	-242,047242  	956,927186  	79,900020  	75,925345  	0,004122  	0,012812  	0,003968  	0,003980  	0,004481  	0,000001  	-0,000000  	24,071573  	19,539489  	21,425096  	26,925863  	38,305862  	35,820793  	37,868212  	41,181082  	51,360784  	49,317205  	53,033777  	70,171374  	22,858886  	20,933489  	21,969705  	74,905348  	-0,009436  	-0,004781  	750,091700  	34184,087943  	-0,026846  	-0,049985  	0,407536  	0,206501  	-3,442192  	18977,895965  	3550,073464  	0,514895  	-0,047938  
70,547000  	13,543895  	51,034544  	357,499067  	357,439972  	79,901145  	75,923161  	0,004123  	0,012886  	0,003966  	0,003993  	0,004451  	0,000001  	-0,000000  	24,072692  	19,530599  	21,427061  	26,929366  	38,303788  	35,819050  	37,861513  	41,178504  	51,355123  	49,315221  	53,034613  	70,164111  	22,863367  	20,960423  	21,963458  	74,904531  	0,001332  	0,000675  	-105,852799  	-1,684683  	-0,026843  	-0,049981  	0,383698  	0,194423  	-3,243545  	19137,896937  	3576,340731  	0,518704  	-0,047935  
71,548000  	13,543711  	51,034637  	1256,818530  	1256,670793  	79,901832  	75,925969  	0,004120  	0,012678  	0,003967  	0,004087  	0,004544  	-0,000001  	-0,000000  	24,069188  	19,529399  	21,424083  	26,920573  	38,300163  	35,815164  	37,861974  	41,174353  	51,355251  	49,318620  	53,030669  	70,165823  	22,864654  	20,984231  	21,960713  	74,903254  	0,076782  	0,038906  	-6104,040819  	-1,993940  	-0,011070  	-0,050011  	0,457245  	0,231689  	-3,863205  	18690,433008  	3508,236486  	0,508827  	-0,047961  
72,547000  	13,540220  	51,035381  	1256,818530  	1256,670793  	79,900083  	75,929089  	0,004121  	0,012893  	0,003968  	0,004043  	0,004517  	-0,000001  	-0,000000  	24,076897  	19,544425  	21,432727  	26,929063  	38,314796  	35,825857  	37,862801  	41,182732  	51,354474  	49,329493  	53,036618  	70,171090  	22,874807  	21,016011  	21,966211  	74,901699  	0,041179  	0,020866  	-3274,042643  	-1,994164  	-0,011072  	-0,050017  	0,435372  	0,220606  	-3,673900  	19153,817304  	3535,697078  	0,512810  	-0,047966  
73,549000  	13,532809  	51,035350  	957,045375  	1256,670793  	79,902738  	75,924502  	0,004123  	0,012878  	0,003964  	0,004019  	0,004405  	0,000001  	-0,000000  	24,073716  	19,540379  	21,427890  	26,931775  	38,307966  	35,820146  	37,862898  	41,177728  	51,358122  	49,321576  	53,032919  	70,163493  	22,875754  	21,033922  	21,963560  	74,892744  	0,022431  	0,011366  	-1783,745648  	4415,917674  	-0,012268  	-0,049989  	0,347396  	0,176028  	-2,936854  	19121,164420  	3585,018815  	0,519963  	-0,047942  
74,549000  	13,531584  	51,036217  	357,499067  	1256,670793  	79,903238  	75,925251  	0,004125  	0,012843  	0,003965  	0,004067  	0,004444  	-0,000001  	-0,000000  	24,079261  	19,541126  	21,426349  	26,921584  	38,311406  	35,828735  	37,877779  	41,184395  	51,361022  	49,321698  	53,042511  	70,164823  	22,879272  	21,059038  	21,966267  	74,898549  	0,061138  	0,030979  	-4862,120902  	16234,897095  	-0,015679  	-0,050013  	0,377922  	0,191496  	-3,194718  	19045,134476  	3625,041092  	0,525768  	-0,047963  
75,547000  	13,532044  	51,036310  	1256,818530  	1256,670793  	79,898396  	75,924190  	0,004120  	0,012855  	0,003965  	0,004083  	0,004507  	0,000001  	-0,000000  	24,074194  	19,537512  	21,428814  	26,932326  	38,301149  	35,825805  	37,872394  	41,176235  	51,364479  	49,323778  	53,044910  	70,164978  	22,885560  	21,074558  	21,967148  	74,904073  	0,074051  	0,037522  	-5889,042256  	-1,992922  	-0,011065  	-0,049982  	0,427580  	0,216658  	-3,611061  	19071,604988  	3520,656949  	0,510628  	-0,047936  
76,547000  	13,532105  	51,036743  	1256,818530  	57,696365  	79,896147  	75,925002  	0,004124  	0,012863  	0,003968  	0,003991  	0,004497  	-0,000001  	-0,000000  	24,070501  	19,544948  	21,425900  	26,919517  	38,308850  	35,829715  	37,868220  	41,192280  	51,353576  	49,318929  	53,035613  	70,165087  	22,877076  	21,073467  	21,964300  	74,902464  	-0,000264  	-0,000134  	21,027371  	-24496,234971  	-0,018202  	-0,050006  	0,420021  	0,212828  	-3,544490  	19087,992271  	3605,926712  	0,522995  	-0,047957  
77,551000  	13,532993  	51,037641  	1256,818530  	956,927186  	79,895803  	75,928184  	0,004120  	0,012868  	0,003964  	0,004099  	0,004453  	0,000001  	-0,000000  	24,073975  	19,551736  	21,435813  	26,932273  	38,316295  	35,825333  	37,865861  	41,185427  	51,373339  	49,333002  	53,047420  	70,171653  	22,890280  	21,099460  	21,974333  	74,911579  	0,086461  	0,043810  	-6876,000005  	-4419,324145  	-0,012267  	-0,049983  	0,385164  	0,195165  	-3,247454  	19098,284905  	3518,701026  	0,510344  	-0,047937  
78,547000  	13,532932  	51,038694  	657,272221  	357,439972  	79,898615  	75,930119  	0,004126  	0,012846  	0,003967  	0,004002  	0,004537  	0,000001  	-0,000000  	24,083415  	19,548308  	21,426427  	26,931332  	38,321925  	35,833573  	37,882181  	41,189516  	51,367655  	49,324709  	53,032380  	70,171104  	22,890823  	21,104892  	21,969991  	74,903083  	0,007968  	0,004037  	-633,662879  	-7102,413238  	-0,021692  	-0,049991  	0,451530  	0,228794  	-3,807858  	19052,772772  	3632,236346  	0,526811  	-0,047944  
79,551000  	13,534310  	51,038508  	657,272221  	357,439972  	79,902332  	75,928528  	0,004120  	0,012859  	0,003967  	0,004102  	0,004487  	0,000001  	-0,000000  	24,065952  	19,530545  	21,422621  	26,924092  	38,314989  	35,818814  	37,859928  	41,177598  	51,352446  	49,328447  	53,033327  	70,163988  	22,892026  	21,103088  	21,955468  	74,893955  	0,088937  	0,045065  	-7072,875372  	-7102,175511  	-0,021691  	-0,049989  	0,412163  	0,208846  	-3,480515  	19080,131129  	3508,391830  	0,508849  	-0,047942  
80,547000  	13,536882  	51,038694  	1256,818530  	-242,047242  	79,902270  	75,924971  	0,004125  	0,012862  	0,003967  	0,004037  	0,004487  	0,000002  	-0,000000  	24,084866  	19,547977  	21,434894  	26,935419  	38,327728  	35,828972  	37,879038  	41,199030  	51,379559  	49,333269  	53,045101  	70,176762  	22,908764  	21,115408  	21,974884  	74,905006  	0,036901  	0,018698  	-2934,394797  	-35495,648478  	-0,021686  	-0,049978  	0,412056  	0,208792  	-3,482671  	19085,718539  	3626,813426  	0,526025  	-0,047933  
81,549000  	13,536668  	51,038477  	957,045375  	1256,670793  	79,901801  	75,927123  	0,004119  	0,012827  	0,003964  	0,004046  	0,004477  	0,000000  	-0,000000  	24,064120  	19,529855  	21,428464  	26,921995  	38,308431  	35,817549  	37,861091  	41,166348  	51,353595  	49,319635  	53,044668  	70,156196  	22,887679  	21,100706  	21,953893  	74,893640  	0,044030  	0,022310  	-3501,339014  	4416,336849  	-0,012269  	-0,049995  	0,404369  	0,204897  	-3,415442  	19010,300536  	3497,094081  	0,507211  	-0,047947  
82,548000  	13,534524  	51,039654  	-242,047242  	1256,670793  	79,899802  	75,934238  	0,004127  	0,012828  	0,003969  	0,004054  	0,004479  	0,000000  	-0,000000  	24,081007  	19,538892  	21,430752  	26,935820  	38,317172  	35,832261  	37,876376  	41,182465  	51,361200  	49,324034  	53,041972  	70,170868  	22,897946  	21,096490  	21,963761  	74,895132  	0,050474  	0,025576  	-4014,131999  	35508,598757  	-0,021696  	-0,049999  	0,405929  	0,205687  	-3,420768  	19013,175597  	3658,581285  	0,530632  	-0,047951  
83,549000  	13,532319  	51,039561  	657,272221  	1256,670793  	79,898458  	75,930275  	0,004116  	0,012851  	0,003970  	0,003982  	0,004578  	-0,000001  	-0,000000  	24,078989  	19,544708  	21,435977  	26,934360  	38,326033  	35,835059  	37,869762  	41,184269  	51,357416  	49,326477  	53,046231  	70,166801  	22,911134  	21,089174  	21,960974  	74,899121  	-0,007734  	-0,003919  	615,144401  	9724,825360  	-0,013769  	-0,050013  	0,483687  	0,245088  	-4,078723  	19063,617214  	3424,534286  	0,496687  	-0,047963  
84,547000  	13,530788  	51,039313  	1256,818530  	1256,670793  	79,892648  	75,929963  	0,004126  	0,012840  	0,003967  	0,003974  	0,004474  	-0,000000  	-0,000000  	24,081858  	19,550036  	21,434518  	26,938876  	38,321644  	35,833769  	37,873761  	41,194507  	51,369091  	49,327185  	53,053562  	70,170755  	22,911260  	21,085411  	21,963987  	74,908014  	-0,014399  	-0,007296  	1145,211722  	-1,993635  	-0,011069  	-0,050002  	0,401924  	0,203658  	-3,384552  	19038,615360  	3639,332745  	0,527841  	-0,047953  
85,550000  	13,533575  	51,040490  	957,045375  	1256,670793  	79,890929  	75,925407  	0,004120  	0,012879  	0,003964  	0,004020  	0,004549  	0,000000  	-0,000000  	24,075249  	19,539359  	21,434750  	26,928746  	38,321700  	35,828730  	37,873627  	41,185655  	51,361578  	49,327918  	53,045812  	70,168524  	22,908689  	21,084502  	21,972210  	74,897362  	0,022761  	0,011533  	-1810,196937  	4416,292862  	-0,012269  	-0,049994  	0,460863  	0,233523  	-3,883648  	19122,952844  	3512,600242  	0,509460  	-0,047946  
86,548000  	13,537985  	51,038756  	357,499067  	657,183579  	79,894303  	75,922911  	0,004128  	0,012850  	0,003966  	0,004089  	0,004563  	0,000001  	-0,000000  	24,076141  	19,548098  	21,436718  	26,926506  	38,318116  	35,828517  	37,867671  	41,181589  	51,357435  	49,334336  	53,044841  	70,170353  	22,915403  	21,082783  	21,972212  	74,899351  	0,079140  	0,040101  	-6293,166524  	7099,228740  	-0,021693  	-0,049993  	0,472138  	0,239236  	-3,984546  	19061,182184  	3691,231780  	0,535368  	-0,047945  
87,547000  	13,541659  	51,039127  	1256,818530  	-242,047242  	79,895678  	75,927654  	0,004123  	0,012870  	0,003965  	0,004114  	0,004479  	-0,000001  	-0,000000  	24,082547  	19,545490  	21,434904  	26,929111  	38,319673  	35,830825  	37,874022  	41,192269  	51,360546  	49,333261  	53,038269  	70,169069  	22,916545  	21,090815  	21,967870  	74,894389  	0,098593  	0,049958  	-7839,330616  	-35518,294967  	-0,021700  	-0,050014  	0,405276  	0,205356  	-3,417377  	19104,462324  	3572,676024  	0,518173  	-0,047963  
88,547000  	13,542027  	51,039995  	57,725912  	-242,047242  	79,892304  	75,934394  	0,004125  	0,012849  	0,003967  	0,004035  	0,004471  	0,000001  	-0,000001  	24,086153  	19,548962  	21,442534  	26,933093  	38,315084  	35,830957  	37,870727  	41,190308  	51,363941  	49,333842  	53,049215  	70,165334  	22,921932  	21,093989  	21,966822  	74,900823  	0,034877  	0,017672  	-2773,184006  	-27696,425377  	-0,093548  	-0,049993  	0,398900  	0,202126  	-3,355042  	19057,552278  	3611,526159  	0,523808  	-0,047945  
89,550000  	13,540251  	51,038818  	57,725912  	1256,670793  	79,889805  	75,927155  	0,004122  	0,012861  	0,003965  	0,004060  	0,004489  	0,000000  	-0,000000  	24,082140  	19,546102  	21,436215  	26,932276  	38,316162  	35,827290  	37,870348  	41,180450  	51,362221  	49,329925  	53,042044  	70,164010  	22,914187  	21,078899  	21,960347  	74,900197  	0,055582  	0,028164  	-4419,558954  	24488,754752  	-0,018199  	-0,049995  	0,413484  	0,209516  	-3,481869  	19084,512343  	3557,183985  	0,515926  	-0,047947  
90,547000  	13,536637  	51,039375  	1256,818530  	657,183579  	79,889242  	75,921039  	0,004126  	0,012875  	0,003965  	0,004047  	0,004531  	-0,000001  	-0,000000  	24,074715  	19,543875  	21,434043  	26,930373  	38,317012  	35,826485  	37,871386  	41,180116  	51,355630  	49,329160  	53,038408  	70,166342  	22,919497  	21,059572  	21,955412  	74,898949  	0,044786  	0,022694  	-3561,554798  	-9727,411404  	-0,013767  	-0,050007  	0,446526  	0,226258  	-3,765371  	19114,674309  	3630,958288  	0,526626  	-0,047957  
91,547000  	13,530941  	51,039004  	1256,818530  	657,183579  	79,884525  	75,923254  	0,004122  	0,012772  	0,003968  	0,004070  	0,004494  	0,000001  	-0,000000  	24,073571  	19,541540  	21,432160  	26,929411  	38,313373  	35,825974  	37,871040  	41,185357  	51,357801  	49,329563  	53,036916  	70,164305  	22,932119  	21,042678  	21,956100  	74,898335  	0,063526  	0,032189  	-5052,508799  	-9723,840199  	-0,013762  	-0,049986  	0,417550  	0,211576  	-3,514879  	18892,654365  	3558,942197  	0,516181  	-0,047940  
92,551000  	13,524388  	51,038322  	1256,818530  	1256,670793  	79,883900  	75,919510  	0,004122  	0,012828  	0,003968  	0,004078  	0,004531  	-0,000000  	-0,000001  	24,073948  	19,534910  	21,432705  	26,928627  	38,310191  	35,823388  	37,866381  	41,182183  	51,355842  	49,327168  	53,034052  	70,165970  	22,937943  	21,028179  	21,954602  	74,900000  	0,069566  	0,035250  	-5533,783365  	-1,993666  	-0,011069  	-0,050003  	0,446502  	0,226246  	-3,761548  	19013,348921  	3563,524847  	0,516846  	-0,047954  
93,548000  	13,519274  	51,038508  	1256,818530  	1256,670793  	79,883338  	75,911148  	0,004127  	0,012828  	0,003966  	0,004113  	0,004447  	0,000000  	-0,000000  	24,071219  	19,540144  	21,436001  	26,931180  	38,312598  	35,823393  	37,866778  	41,184212  	51,355131  	49,328850  	53,047469  	70,172239  	22,939322  	21,009672  	21,957342  	74,906222  	0,098294  	0,049806  	-7820,145015  	-1,993475  	-0,011068  	-0,049998  	0,380171  	0,192635  	-3,209038  	19014,144798  	3672,957671  	0,532717  	-0,047949  
94,548000  	13,518600  	51,039004  	1256,818530  	1256,670793  	79,880713  	75,909401  	0,004122  	0,012817  	0,003971  	0,004008  	0,004489  	0,000001  	-0,000000  	24,067231  	19,548747  	21,435127  	26,932023  	38,313542  	35,829166  	37,871901  	41,186607  	51,361927  	49,332838  	53,055106  	70,169245  	22,940482  	20,979779  	21,959188  	74,906504  	0,012804  	0,006488  	-1018,720840  	-1,993242  	-0,011067  	-0,049991  	0,413268  	0,209406  	-3,487644  	18988,345652  	3550,532435  	0,514961  	-0,047944  
95,547000  	13,519335  	51,039375  	1256,818530  	1256,670793  	79,880057  	75,910680  	0,004128  	0,012908  	0,003966  	0,004047  	0,004471  	-0,000001  	-0,000000  	24,067685  	19,540832  	21,438346  	26,927628  	38,310724  	35,834245  	37,869068  	41,180633  	51,360735  	49,336277  	53,044917  	70,164680  	22,949634  	20,939279  	21,955859  	74,904519  	0,044845  	0,022723  	-3567,876944  	-1,994029  	-0,011071  	-0,050013  	0,399265  	0,202311  	-3,367830  	19185,689875  	3682,949118  	0,534167  	-0,047963  
96,549000  	13,517314  	51,039747  	57,725912  	57,696365  	79,878620  	75,914861  	0,004118  	0,012871  	0,003967  	0,004061  	0,004535  	0,000001  	-0,000000  	24,078131  	19,537154  	21,435418  	26,930166  	38,317756  	35,832740  	37,872379  	41,189756  	51,363510  	49,337683  	53,041403  	70,165987  	22,956678  	20,907667  	21,960911  	74,903391  	0,056357  	0,028556  	-4484,045976  	-1,524522  	-0,051163  	-0,049981  	0,449663  	0,227847  	-3,787570  	19104,761574  	3463,080794  	0,502277  	-0,047935  
97,546000  	13,513058  	51,039995  	1256,818530  	1256,670793  	79,880463  	75,916764  	0,004130  	0,012796  	0,003962  	0,004026  	0,004480  	-0,000002  	-0,000000  	24,077173  	19,546732  	21,436644  	26,935245  	38,319801  	35,832578  	37,873101  	41,189660  	51,360745  	49,331780  	53,044290  	70,165893  	22,964271  	20,918774  	21,957344  	74,902124  	0,027985  	0,014180  	-2226,932002  	-1,994351  	-0,011073  	-0,050022  	0,406688  	0,206072  	-3,425538  	18944,549784  	3721,650970  	0,539780  	-0,047970  
98,549000  	13,504361  	51,040180  	657,272221  	657,183579  	79,882775  	75,913644  	0,004116  	0,012899  	0,003967  	0,004038  	0,004541  	0,000001  	-0,000000  	24,066015  	19,545042  	21,438695  	26,928831  	38,317993  	35,830803  	37,871330  	41,192055  	51,362635  	49,332534  	53,045338  	70,170318  	22,971280  	20,945518  	21,959141  	74,910253  	0,037769  	0,019138  	-3006,152612  	-1,810449  	-0,018198  	-0,049993  	0,454894  	0,230498  	-3,836829  	19165,617506  	3428,424948  	0,497251  	-0,047946  
99,546000  	13,495909  	51,039530  	-242,047242  	657,183579  	79,884712  	75,910961  	0,004127  	0,012851  	0,003969  	0,004088  	0,004470  	0,000000  	-0,000000  	24,073394  	19,550392  	21,441326  	26,932803  	38,316957  	35,836814  	37,875069  	41,189650  	51,357686  	49,333693  	53,050666  	70,169354  	22,967724  	20,979337  	21,952733  	74,908448  	0,078042  	0,039545  	-6212,974424  	32740,568605  	-0,035222  	-0,049995  	0,398498  	0,201922  	-3,365060  	19061,966742  	3666,750970  	0,531817  	-0,047947  
100,548000  	13,490274  	51,039158  	957,045375  	1256,670793  	79,884837  	75,910898  	0,004119  	0,012850  	0,003968  	0,004081  	0,004507  	0,000001  	-0,000000  	24,072227  	19,540580  	21,433707  	26,937563  	38,312809  	35,827038  	37,875848  	41,191111  	51,355060  	49,331425  	53,053278  	70,164895  	22,979278  	21,009429  	21,949531  	74,903525  	0,072426  	0,036699  	-5766,660729  	4415,394352  	-0,012267  	-0,049983  	0,427702  	0,216720  	-3,611841  	19059,824595  	3487,476872  	0,505816  	-0,047937  
101,548000  	13,490029  	51,039004  	957,045375  	1256,670793  	79,884962  	75,914018  	0,004123  	0,012870  	0,003966  	0,004101  	0,004515  	0,000001  	-0,000000  	24,078309  	19,535645  	21,432187  	26,928839  	38,322685  	35,819382  	37,873293  	41,190491  	51,365241  	49,335686  	53,045223  	70,173785  	22,971236  	21,028289  	21,952779  	74,907231  	0,088152  	0,044667  	-7018,828160  	4415,911205  	-0,012268  	-0,049989  	0,434352  	0,220089  	-3,665236  	19104,431904  	3573,954082  	0,518358  	-0,047942  
102,549000  	13,492540  	51,038013  	357,499067  	1256,670793  	79,886024  	75,912583  	0,004119  	0,012859  	0,003967  	0,004081  	0,004496  	0,000001  	-0,000000  	24,071238  	19,543509  	21,443686  	26,944444  	38,318187  	35,819804  	37,877361  	41,188295  	51,361690  	49,343493  	53,059639  	70,170419  	22,986062  	21,057529  	21,965471  	74,910775  	0,072166  	0,036567  	-5745,427547  	16228,981467  	-0,015674  	-0,049993  	0,419455  	0,212541  	-3,541759  	19079,358598  	3496,105528  	0,507067  	-0,047945  
103,547000  	13,494929  	51,037455  	1256,818530  	1256,670793  	79,886024  	75,914175  	0,004123  	0,012859  	0,003967  	0,004054  	0,004525  	0,000000  	-0,000000  	24,075811  	19,535492  	21,426291  	26,930294  	38,321054  	35,833651  	37,890790  	41,198808  	51,356934  	49,329662  	53,054080  	70,169389  	22,963000  	21,060695  	21,963121  	74,903561  	0,050708  	0,025694  	-4036,766387  	-1,993393  	-0,011067  	-0,049995  	0,441714  	0,223820  	-3,728215  	19079,467545  	3584,983509  	0,519958  	-0,047947  
104,551000  	13,492908  	51,037208  	1256,818530  	57,696365  	79,885899  	75,912490  	0,004122  	0,012824  	0,003964  	0,004068  	0,004533  	0,000000  	-0,000000  	24,062679  	19,536992  	21,443049  	26,936359  	38,314370  	35,827677  	37,865356  	41,185161  	51,357245  	49,321736  	53,053172  	70,157743  	22,984252  	21,058207  	21,950865  	74,901585  	0,062039  	0,031435  	-4939,010207  	-24492,097035  	-0,018199  	-0,049997  	0,448177  	0,227095  	-3,784249  	19003,641345  	3546,437001  	0,514367  	-0,047949  
105,548000  	13,490397  	51,036495  	1256,818530  	956,927186  	79,885774  	75,919541  	0,004125  	0,012854  	0,003969  	0,003990  	0,004521  	-0,000000  	-0,000000  	24,068232  	19,540714  	21,432994  	26,929117  	38,320645  	35,826320  	37,873801  	41,191647  	51,360976  	49,323214  	53,043542  	70,165857  	22,971831  	21,055949  	21,954161  	74,915513  	-0,001223  	-0,000620  	97,388727  	-4420,866032  	-0,012271  	-0,050003  	0,439026  	0,222457  	-3,700284  	19068,908911  	3610,212796  	0,523617  	-0,047954  
106,550000  	13,488131  	51,036929  	657,272221  	357,439972  	79,883275  	75,914237  	0,004123  	0,012883  	0,003966  	0,003977  	0,004498  	0,000000  	-0,000000  	24,073927  	19,551993  	21,445303  	26,954627  	38,329702  	35,833486  	37,874828  	41,185193  	51,346129  	49,334575  	53,062409  	70,176009  	22,997841  	21,075559  	21,953550  	74,906545  	-0,011797  	-0,005977  	939,268604  	-7103,083763  	-0,021694  	-0,049996  	0,420385  	0,213012  	-3,545677  	19132,097293  	3570,211702  	0,517815  	-0,047948  
107,548000  	13,484548  	51,036279  	657,272221  	357,439972  	79,878120  	75,919885  	0,004122  	0,012812  	0,003968  	0,004018  	0,004497  	-0,000000  	-0,000000  	24,079889  	19,554586  	21,447304  	26,932388  	38,332382  	35,828315  	37,880523  	41,189521  	51,363764  	49,327777  	53,047995  	70,170595  	22,991623  	21,059479  	21,964941  	74,908364  	0,021438  	0,010863  	-1707,080952  	-7104,258873  	-0,021698  	-0,050006  	0,419591  	0,212610  	-3,529351  	18979,063251  	3552,325953  	0,515221  	-0,047956  
108,548000  	13,485038  	51,036526  	57,725912  	956,927186  	79,875621  	75,911710  	0,004123  	0,012843  	0,003966  	0,004084  	0,004440  	0,000001  	-0,000000  	24,080387  	19,557219  	21,454306  	26,942670  	38,332934  	35,834269  	37,886430  	41,194871  	51,362723  	49,340805  	53,057695  	70,175721  	22,992941  	21,052022  	21,971348  	74,911824  	0,074391  	0,037694  	-5923,528096  	21297,213963  	-0,021689  	-0,049981  	0,374421  	0,189722  	-3,153921  	19044,917998  	3577,145696  	0,518821  	-0,047935  
109,548000  	13,485589  	51,037858  	1256,818530  	-242,047242  	79,877745  	75,911304  	0,004120  	0,012841  	0,003966  	0,004014  	0,004552  	0,000000  	-0,000000  	24,067084  	19,543418  	21,439325  	26,940113  	38,319606  	35,837139  	37,875950  	41,193465  	51,367876  	49,326755  	53,056368  	70,171233  	22,991080  	21,032353  	21,963546  	74,910774  	0,018101  	0,009172  	-1441,369588  	-35506,627176  	-0,021693  	-0,049995  	0,463713  	0,234967  	-3,908557  	19040,515560  	3504,938956  	0,508348  	-0,047947  
110,546000  	13,485283  	51,036310  	657,272221  	357,439972  	79,878620  	75,907934  	0,004128  	0,012820  	0,003968  	0,004027  	0,004459  	0,000001  	-0,000000  	24,086113  	19,555514  	21,442911  	26,934840  	38,325579  	35,839119  	37,883249  	41,194114  	51,356975  	49,328917  	53,053496  	70,172749  	22,989576  	21,027476  	21,971737  	74,918554  	0,028612  	0,014498  	-2278,252521  	-7102,399713  	-0,021692  	-0,049991  	0,389458  	0,197341  	-3,286184  	18996,404171  	3691,168231  	0,535359  	-0,047944  
111,546000  	13,487579  	51,035845  	657,272221  	1256,670793  	79,876027  	75,906031  	0,004119  	0,012668  	0,003965  	0,004048  	0,004473  	-0,000000  	-0,000000  	24,075178  	19,551275  	21,438630  	26,933942  	38,312516  	35,831874  	37,880922  	41,192001  	51,361742  	49,328027  	53,052468  	70,165110  	22,974795  	20,999605  	21,954046  	74,910775  	0,045779  	0,023197  	-3644,929111  	9723,419200  	-0,013767  	-0,050005  	0,401133  	0,203257  	-3,384109  	18668,255278  	3490,414287  	0,506242  	-0,047956  
112,550000  	13,492234  	51,036464  	1256,818530  	1256,670793  	79,872466  	75,907528  	0,004126  	0,012911  	0,003968  	0,004056  	0,004409  	-0,000001  	-0,000000  	24,080353  	19,545624  	21,441428  	26,938495  	38,320192  	35,832609  	37,882257  	41,197476  	51,356243  	49,329620  	53,046967  	70,166520  	22,966545  	20,988063  	21,953671  	74,915246  	0,052149  	0,026424  	-4151,632012  	-1,993861  	-0,011070  	-0,050008  	0,350317  	0,177508  	-2,951641  	19191,128014  	3646,577426  	0,528891  	-0,047959  
113,546000  	13,492020  	51,037053  	1256,818530  	956,927186  	79,869748  	75,897981  	0,004122  	0,012900  	0,003965  	0,004046  	0,004515  	0,000001  	-0,000000  	24,078507  	19,543242  	21,439714  	26,939386  	38,320326  	35,829587  	37,877718  	41,193647  	51,357531  	49,324759  	53,053093  	70,174720  	22,975427  	20,985479  	21,955937  	74,911584  	0,044019  	0,022305  	-3504,526811  	-4419,973531  	-0,012268  	-0,049992  	0,434366  	0,220097  	-3,666109  	19169,163226  	3553,978249  	0,515461  	-0,047944  
114,552000  	13,491468  	51,037115  	1256,818530  	357,439972  	79,869560  	75,896670  	0,004129  	0,012864  	0,003970  	0,004002  	0,004455  	0,000001  	-0,000000  	24,072763  	19,544447  	21,431565  	26,935183  	38,325863  	35,831651  	37,871684  	41,183464  	51,355723  	49,314712  	53,051845  	70,163740  	22,963943  	20,977012  	21,950216  	74,904832  	0,007976  	0,004042  	-635,038004  	-16229,770792  	-0,015671  	-0,049985  	0,386418  	0,195801  	-3,262337  	19090,416689  	3703,977054  	0,537216  	-0,047938  
115,548000  	13,490458  	51,036929  	357,499067  	357,439972  	79,868811  	75,898761  	0,004119  	0,012876  	0,003967  	0,004106  	0,004545  	-0,000001  	-0,000000  	24,074956  	19,545981  	21,439356  	26,945394  	38,322899  	35,829956  	37,875106  	41,184488  	51,357660  	49,323371  	53,055107  	70,162979  	22,965764  	20,967141  	21,952205  	74,906326  	0,092327  	0,046783  	-7350,747536  	-1,685739  	-0,026860  	-0,050016  	0,457603  	0,231871  	-3,860560  	19116,834143  	3488,550158  	0,505971  	-0,047966  
116,547000  	13,488621  	51,036371  	957,045375  	956,927186  	79,874184  	75,899010  	0,004128  	0,012852  	0,003969  	0,003977  	0,004468  	0,000001  	-0,000000  	24,074512  	19,546036  	21,441274  	26,944853  	38,325280  	35,829554  	37,879500  	41,193862  	51,361911  	49,331006  	53,053950  	70,172322  	22,967461  	20,968712  	21,954421  	74,904354  	-0,012193  	-0,006178  	970,802706  	-1,916788  	-0,013763  	-0,049991  	0,396945  	0,201135  	-3,353140  	19064,676261  	3685,844166  	0,534586  	-0,047944  
117,547000  	13,489019  	51,036186  	57,725912  	1256,670793  	79,878589  	75,897887  	0,004119  	0,012878  	0,003966  	0,004061  	0,004546  	-0,000001  	-0,000000  	24,074051  	19,548076  	21,442114  	26,940982  	38,325924  	35,832860  	37,878378  	41,192795  	51,360194  	49,327634  	53,051437  	70,170640  	22,975615  	20,970509  	21,954376  	74,899173  	0,056122  	0,028437  	-4468,297424  	24496,362666  	-0,018205  	-0,050012  	0,458687  	0,232420  	-3,880091  	19120,569458  	3499,600769  	0,507574  	-0,047962  
118,549000  	13,497348  	51,035752  	657,272221  	1256,670793  	79,878527  	75,905500  	0,004127  	0,012870  	0,003967  	0,003979  	0,004466  	0,000001  	-0,000000  	24,067008  	19,544120  	21,441508  	26,934743  	38,313409  	35,829950  	37,876239  	41,184893  	51,357439  	49,321515  	53,048146  	70,164253  	22,977562  	20,961459  	21,950774  	74,896333  	-0,010020  	-0,005077  	797,613550  	9719,832956  	-0,013762  	-0,049984  	0,395594  	0,200450  	-3,339926  	19103,788836  	3666,969864  	0,531849  	-0,047938  
119,547000  	13,501023  	51,035566  	657,272221  	1256,670793  	79,874590  	75,906405  	0,004120  	0,012561  	0,003965  	0,004160  	0,004472  	0,000000  	-0,000000  	24,062020  	19,540494  	21,439453  	26,936363  	38,308178  	35,826450  	37,872382  	41,183047  	51,352947  	49,321190  	53,045084  	70,166082  	22,970271  	20,956860  	21,942515  	74,895064  	0,136436  	0,069133  	-10859,098125  	9721,773102  	-0,013764  	-0,049995  	0,400088  	0,202727  	-3,373753  	18438,282932  	3502,227496  	0,507955  	-0,047947  
120,547000  	13,501390  	51,035009  	1256,818530  	57,696365  	79,871841  	75,911834  	0,004125  	0,013044  	0,003971  	0,004005  	0,004555  	0,000001  	-0,000000  	24,071262  	19,544729  	21,440385  	26,940754  	38,312796  	35,829089  	37,872007  	41,188089  	51,350410  	49,325459  	53,046362  	70,171166  	22,971952  	20,962044  	21,942532  	74,897461  	0,011065  	0,005607  	-880,645120  	-24489,325856  	-0,018197  	-0,049991  	0,465676  	0,235961  	-3,918735  	19478,338413  	3611,399059  	0,523789  	-0,047943  
121,551000  	13,505157  	51,035226  	1256,818530  	-242,047242  	79,870248  	75,903909  	0,004115  	0,012862  	0,003967  	0,004059  	0,004540  	-0,000000  	-0,000000  	24,073470  	19,542246  	21,434082  	26,921718  	38,313206  	35,830231  	37,873229  	41,185854  	51,351249  	49,326354  	53,044492  	70,169012  	22,969146  	20,962816  	21,945191  	74,897295  	0,054080  	0,027403  	-4303,748209  	-35513,354293  	-0,021697  	-0,050006  	0,453912  	0,230000  	-3,825841  	19085,675385  	3403,294517  	0,493606  	-0,047956  
122,547000  	13,507055  	51,034544  	657,272221  	357,439972  	79,871997  	75,900789  	0,004127  	0,012897  	0,003965  	0,004077  	0,004467  	-0,000000  	-0,000001  	24,070372  	19,538023  	21,434911  	26,919891  	38,312564  	35,827313  	37,865358  	41,173579  	51,348017  	49,326585  	53,041098  	70,163705  	22,972171  	20,961180  	21,940743  	74,888768  	0,069298  	0,035114  	-5514,441762  	-7104,233904  	-0,021697  	-0,050005  	0,395751  	0,200530  	-3,339726  	19161,785270  	3653,815047  	0,529941  	-0,047956  
123,548000  	13,502829  	51,035381  	657,272221  	1256,670793  	79,872872  	75,899104  	0,004120  	0,012841  	0,003971  	0,003993  	0,004555  	-0,000001  	-0,000000  	24,073544  	19,541736  	21,441126  	26,931121  	38,316405  	35,829236  	37,870395  	41,179828  	51,357148  	49,324774  	53,038328  	70,165680  	22,978166  	20,964667  	21,947762  	74,891852  	0,000568  	0,000288  	-45,202482  	9725,013323  	-0,013769  	-0,050014  	0,465598  	0,235922  	-3,931691  	19041,991293  	3513,807689  	0,509635  	-0,047963  
124,549000  	13,496399  	51,035257  	1256,818530  	1256,670793  	79,873309  	75,904283  	0,004124  	0,012883  	0,003965  	0,004013  	0,004450  	0,000001  	-0,000000  	24,066187  	19,540079  	21,444337  	26,930724  	38,320276  	35,837466  	37,877133  	41,183308  	51,355515  	49,329099  	53,048218  	70,163850  	22,982710  	20,962885  	21,947092  	74,903448  	0,017220  	0,008725  	-1370,704897  	-1,993175  	-0,011066  	-0,049989  	0,383038  	0,194088  	-3,230668  	19130,714236  	3600,404937  	0,522195  	-0,047942  
125,547000  	13,490580  	51,033925  	1256,818530  	57,696365  	79,878027  	75,910087  	0,004123  	0,012804  	0,003969  	0,004039  	0,004553  	-0,000000  	-0,000000  	24,057938  	19,533020  	21,425635  	26,925479  	38,304243  	35,817965  	37,864915  	41,179695  	51,341268  	49,319105  	53,037599  	70,152027  	22,980154  	20,946509  	21,933903  	74,886205  	0,038144  	0,019328  	-3036,646178  	-24495,752481  	-0,018202  	-0,050005  	0,464577  	0,235405  	-3,917322  	18960,281264  	3571,313233  	0,517975  	-0,047956  
126,549000  	13,487334  	51,034111  	657,272221  	1256,670793  	79,881526  	75,910961  	0,004121  	0,012861  	0,003967  	0,004049  	0,004461  	0,000002  	-0,000000  	24,072561  	19,540286  	21,430421  	26,927073  	38,322951  	35,830675  	37,877054  	41,191157  	51,360544  	49,324136  	53,045436  	70,172708  	22,989451  	20,942934  	21,944060  	74,904444  	0,046375  	0,023499  	-3692,272052  	9717,452094  	-0,013758  	-0,049971  	0,391694  	0,198474  	-3,304958  	19083,228329  	3536,763303  	0,512964  	-0,047926  
127,548000  	13,483843  	51,033925  	657,272221  	357,439972  	79,882057  	75,907154  	0,004128  	0,012865  	0,003969  	0,004035  	0,004557  	-0,000003  	-0,000000  	24,074512  	19,527197  	21,433775  	26,922619  	38,311108  	35,816192  	37,870802  	41,182016  	51,354070  	49,321989  	53,043580  	70,167183  	22,977425  	20,920275  	21,937380  	74,895377  	0,035170  	0,017821  	-2800,412645  	-7107,578208  	-0,021708  	-0,050032  	0,467693  	0,236983  	-3,950510  	19093,626372  	3694,712899  	0,535873  	-0,047979  
128,549000  	13,479495  	51,032872  	57,725912  	956,927186  	79,879370  	75,909338  	0,004119  	0,012867  	0,003969  	0,004064  	0,004458  	0,000001  	-0,000000  	24,063969  	19,529444  	21,427725  	26,912234  	38,313445  	35,823483  	37,875126  	41,180493  	51,353371  	49,318380  	53,037291  	70,173254  	22,969274  	20,907682  	21,948409  	74,895253  	0,058135  	0,029457  	-4629,321514  	21301,324849  	-0,021693  	-0,049992  	0,388865  	0,197041  	-3,280643  	19097,015746  	3495,180525  	0,506933  	-0,047945  
129,548000  	13,477841  	51,033337  	1256,818530  	1256,670793  	79,874278  	75,916983  	0,004126  	0,012904  	0,003966  	0,004111  	0,004525  	-0,000002  	-0,000000  	24,059284  	19,544978  	21,432164  	26,935475  	38,302870  	35,821580  	37,873819  	41,173953  	51,360321  	49,326279  	53,051990  	70,164725  	22,982846  	20,895860  	21,945248  	74,908099  	0,096548  	0,048922  	-7688,675375  	-1,994461  	-0,011073  	-0,050025  	0,442448  	0,224192  	-3,720725  	19176,217172  	3634,714790  	0,527171  	-0,047973  
130,549000  	13,473432  	51,033337  	1256,818530  	1256,670793  	79,872278  	75,906873  	0,004119  	0,012862  	0,003965  	0,004057  	0,004460  	0,000002  	-0,000000  	24,050354  	19,520215  	21,421978  	26,904342  	38,301372  	35,812747  	37,864128  	41,173331  	51,348663  	49,317207  	53,031533  	70,157505  	22,946109  	20,852166  	21,940673  	74,895082  	0,053058  	0,026885  	-4225,805517  	-1,992557  	-0,011063  	-0,049972  	0,390339  	0,197788  	-3,289244  	19086,277421  	3500,215084  	0,507663  	-0,047927  
131,548000  	13,470492  	51,033058  	1256,818530  	1256,670793  	79,873309  	75,906873  	0,004126  	0,012894  	0,003968  	0,004006  	0,004543  	-0,000002  	-0,000000  	24,073866  	19,541271  	21,437725  	26,934055  	38,318924  	35,828696  	37,876401  	41,192203  	51,352057  	49,319928  	53,057709  	70,164266  	22,958866  	20,854529  	21,953442  	74,897813  	0,011268  	0,005710  	-897,495043  	-1,994532  	-0,011074  	-0,050027  	0,456353  	0,231238  	-3,846518  	19155,320628  	3650,143278  	0,529409  	-0,047975  
132,550000  	13,467920  	51,032872  	57,725912  	1256,670793  	79,874559  	75,911616  	0,004119  	0,012843  	0,003967  	0,004023  	0,004450  	0,000001  	-0,000001  	24,056445  	19,528453  	21,415610  	26,912713  	38,306119  	35,808616  	37,870141  	41,175939  	51,341113  	49,316340  	53,041555  	70,164330  	22,942072  	20,836371  	21,936189  	74,893366  	0,025165  	0,012751  	-2004,557314  	24487,791657  	-0,018199  	-0,049992  	0,382418  	0,193774  	-3,220499  	19044,600354  	3492,702081  	0,506574  	-0,047945  
133,548000  	13,465684  	51,032996  	957,045375  	956,927186  	79,876652  	75,910025  	0,004128  	0,012635  	0,003966  	0,004045  	0,004477  	0,000000  	-0,000000  	24,062590  	19,521811  	21,431665  	26,921090  	38,307627  	35,817516  	37,864084  	41,179389  	51,339567  	49,326939  	53,047076  	70,157309  	22,936247  	20,826859  	21,941405  	74,902422  	0,043278  	0,021929  	-3447,569915  	-1,917036  	-0,013765  	-0,049999  	0,404122  	0,204771  	-3,406434  	18597,824770  	3689,395896  	0,535102  	-0,047950  
134,547000  	13,465623  	51,032934  	357,499067  	357,439972  	79,879964  	75,904346  	0,004122  	0,012860  	0,003968  	0,003961  	0,004471  	0,000001  	-0,000000  	24,057134  	19,530906  	21,433060  	26,917358  	38,312336  	35,816193  	37,870639  	41,183668  	51,355665  	49,327000  	53,053603  	70,162845  	22,919982  	20,807803  	21,950919  	74,892437  	-0,024954  	-0,012645  	1987,888161  	-1,684988  	-0,026848  	-0,049992  	0,399453  	0,202406  	-3,374712  	19081,666287  	3548,668306  	0,514691  	-0,047944  
135,547000  	13,466174  	51,032841  	1256,818530  	1256,670793  	79,882619  	75,899603  	0,004125  	0,012867  	0,003965  	0,004073  	0,004494  	0,000000  	-0,000000  	24,061319  	19,528100  	21,434544  	26,915133  	38,314235  	35,820469  	37,868700  	41,180327  	51,338495  	49,330616  	53,048790  	70,153389  	22,895355  	20,795439  	21,949086  	74,883306  	0,065802  	0,033342  	-5241,775086  	-1,993387  	-0,011067  	-0,049995  	0,417477  	0,211539  	-3,533544  	19096,913167  	3617,358622  	0,524654  	-0,047947  
136,549000  	13,466848  	51,032098  	57,725912  	1256,670793  	79,876308  	75,894736  	0,004121  	0,012837  	0,003965  	0,004038  	0,004519  	0,000002  	-0,000000  	24,061073  	19,529076  	21,425128  	26,919541  	38,308209  	35,819787  	37,866050  	41,180606  	51,346096  	49,328364  	53,045220  	70,159511  	22,885739  	20,764505  	21,955190  	74,886168  	0,037596  	0,019050  	-2994,767741  	24481,871401  	-0,018194  	-0,049979  	0,437246  	0,221556  	-3,699520  	19032,233488  	3530,973207  	0,512124  	-0,047933  
137,548000  	13,467736  	51,031293  	1256,818530  	956,927186  	79,874403  	75,895578  	0,004124  	0,012874  	0,003968  	0,004057  	0,004476  	0,000001  	-0,000000  	24,054230  	19,536159  	21,423117  	26,925156  	38,314494  	35,820216  	37,864090  	41,180921  	51,345895  	49,323051  	53,047378  	70,163276  	22,870751  	20,740922  	21,956028  	74,881680  	0,052520  	0,026613  	-4183,408639  	-4419,815878  	-0,012268  	-0,049990  	0,403286  	0,204348  	-3,409837  	19112,501035  	3600,051883  	0,522143  	-0,047942  
138,549000  	13,465899  	51,031231  	1256,818530  	357,439972  	79,872278  	75,904065  	0,004120  	0,012737  	0,003965  	0,004047  	0,004516  	0,000001  	-0,000000  	24,060681  	19,533290  	21,429462  	26,932906  	38,315054  	35,823802  	37,874669  	41,182135  	51,346774  	49,325395  	53,054785  	70,166768  	22,862653  	20,728642  	21,958637  	74,888500  	0,044957  	0,022780  	-3581,096131  	-16231,474380  	-0,015672  	-0,049990  	0,434663  	0,220247  	-3,665336  	18816,387426  	3520,565155  	0,510615  	-0,047943  
139,548000  	13,461121  	51,030859  	357,499067  	1256,670793  	79,874684  	75,900633  	0,004123  	0,012910  	0,003968  	0,004056  	0,004498  	0,000001  	-0,000000  	24,071520  	19,533242  	21,432988  	26,926146  	38,316329  	35,826951  	37,874923  	41,186624  	51,355468  	49,327950  	53,050567  	70,167743  	22,843878  	20,724279  	21,955648  	74,894254  	0,051711  	0,026202  	-4119,587959  	16228,821007  	-0,015673  	-0,049992  	0,420592  	0,213117  	-3,551891  	19190,088776  	3568,693567  	0,517595  	-0,047945  
140,550000  	13,455732  	51,029311  	957,045375  	1256,670793  	79,877933  	75,899572  	0,004122  	0,012845  	0,003963  	0,004061  	0,004558  	0,000001  	-0,000000  	24,066433  	19,527394  	21,435442  	26,926378  	38,316267  	35,823673  	37,864942  	41,173837  	51,345233  	49,326444  	53,053658  	70,160286  	22,839358  	20,703747  	21,957489  	74,886585  	0,055685  	0,028216  	-4436,638277  	4416,070013  	-0,012269  	-0,049991  	0,468194  	0,237238  	-3,958185  	19049,744195  	3558,045438  	0,516051  	-0,047944  
141,548000  	13,453864  	51,029280  	1256,818530  	956,927186  	79,880963  	75,900602  	0,004121  	0,012821  	0,003969  	0,004002  	0,004475  	0,000001  	-0,000000  	24,065791  	19,522549  	21,428470  	26,917755  	38,314597  	35,820298  	37,868657  	41,172253  	51,343038  	49,323542  	53,049265  	70,160352  	22,818155  	20,677253  	21,949953  	74,884503  	0,007874  	0,003990  	-627,394539  	-4419,399248  	-0,012267  	-0,049984  	0,402434  	0,203916  	-3,403944  	18997,986021  	3537,751856  	0,513108  	-0,047938  
142,547000  	13,454905  	51,029899  	657,272221  	-242,047242  	79,885837  	75,903285  	0,004126  	0,012877  	0,003967  	0,004011  	0,004511  	-0,000001  	-0,000000  	24,064960  	19,527407  	21,434927  	26,922835  	38,316453  	35,823549  	37,869294  	41,181576  	51,347870  	49,328470  	53,050860  	70,164605  	22,806480  	20,663833  	21,951868  	74,887484  	0,015813  	0,008012  	-1259,923141  	-32749,859222  	-0,035228  	-0,050010  	0,430692  	0,218235  	-3,644970  	19119,790560  	3643,406995  	0,528432  	-0,047960  
143,547000  	13,456008  	51,029621  	-242,047242  	657,183579  	79,882494  	75,908527  	0,004118  	0,012888  	0,003963  	0,004095  	0,004450  	-0,000000  	-0,000000  	24,065713  	19,532390  	21,442399  	26,922616  	38,316218  	35,823691  	37,871879  	41,181250  	51,346212  	49,324092  	53,050792  	70,166005  	22,788965  	20,657520  	21,953417  	74,884283  	0,083792  	0,042458  	-6676,080196  	32745,532056  	-0,035227  	-0,050003  	0,382788  	0,193961  	-3,232575  	19142,604991  	3475,310608  	0,504051  	-0,047954  
144,551000  	13,456191  	51,029187  	-242,047242  	1256,670793  	79,876996  	75,910898  	0,004126  	0,012835  	0,003965  	0,004049  	0,004528  	-0,000001  	-0,000000  	24,066475  	19,536382  	21,439111  	26,922439  	38,314621  	35,822802  	37,875914  	41,176931  	51,344956  	49,321642  	53,053715  	70,163002  	22,776323  	20,649856  	21,947760  	74,883536  	0,046571  	0,023598  	-3710,465093  	35515,525980  	-0,021701  	-0,050010  	0,444524  	0,225243  	-3,746490  	19027,100967  	3647,453002  	0,529018  	-0,047960  
145,547000  	13,453466  	51,029032  	957,045375  	956,927186  	79,874371  	75,906218  	0,004120  	0,012805  	0,003968  	0,004017  	0,004507  	-0,000000  	-0,000000  	24,069149  	19,533745  	21,439907  	26,929070  	38,316252  	35,828287  	37,872947  	41,180094  	51,348150  	49,330837  	53,057744  	70,162286  	22,778108  	20,634213  	21,950869  	74,885927  	0,020157  	0,010214  	-1606,116246  	-1,917097  	-0,013766  	-0,050000  	0,427893  	0,216817  	-3,608192  	18962,835144  	3510,227714  	0,509115  	-0,047952  
146,550000  	13,450955  	51,028413  	357,499067  	-242,047242  	79,869748  	75,902099  	0,004126  	0,012866  	0,003967  	0,004021  	0,004641  	-0,000001  	-0,000000  	24,071177  	19,524155  	21,441503  	26,921099  	38,313122  	35,825031  	37,863353  	41,180007  	51,344871  	49,329938  	53,047801  	70,163240  	22,770291  	20,612859  	21,951133  	74,890209  	0,023941  	0,012131  	-1907,699196  	-30947,924690  	-0,051185  	-0,050009  	0,534323  	0,270746  	-4,505086  	19095,811673  	3631,805619  	0,526749  	-0,047959  
147,547000  	13,451782  	51,027205  	1256,818530  	657,183579  	79,870216  	75,901725  	0,004119  	0,012816  	0,003966  	0,004015  	0,004543  	-0,000001  	-0,000000  	24,069545  	19,528163  	21,434499  	26,917611  	38,309889  	35,820815  	37,856820  	41,176701  	51,338694  	49,325297  	53,043689  	70,161625  	22,767986  	20,605603  	21,947271  	74,895790  	0,018941  	0,009598  	-1509,221145  	-9727,418526  	-0,013767  	-0,050007  	0,456048  	0,231083  	-3,845932  	18987,757057  	3483,190788  	0,505194  	-0,047957  
148,548000  	13,457539  	51,026400  	57,725912  	1256,670793  	79,872591  	75,897918  	0,004130  	0,012881  	0,003971  	0,003966  	0,004548  	-0,000000  	-0,000000  	24,076666  	19,536795  	21,428610  	26,919782  	38,312547  	35,828296  	37,867715  	41,180080  	51,342913  	49,325403  	53,048518  	70,166925  	22,766063  	20,611531  	21,953044  	74,892282  	-0,021072  	-0,010677  	1678,645280  	24492,648383  	-0,018202  	-0,050004  	0,460414  	0,233295  	-3,888798  	19126,346463  	3716,799999  	0,539076  	-0,047954  
149,547000  	13,455609  	51,024666  	957,045375  	1256,670793  	79,871435  	75,898074  	0,004119  	0,012921  	0,003966  	0,004092  	0,004498  	0,000002  	-0,000000  	24,067573  	19,527889  	21,429127  	26,915166  	38,303279  	35,814151  	37,867125  	41,173561  	51,342136  	49,318872  	53,050494  	70,165164  	22,761896  	20,608570  	21,949938  	74,891452  	0,080902  	0,040994  	-6445,036469  	4415,115549  	-0,012266  	-0,049979  	0,420379  	0,213009  	-3,549476  	19214,261503  	3500,568139  	0,507714  	-0,047934  
150,551000  	13,449975  	51,024852  	-242,047242  	657,183579  	79,869373  	75,898573  	0,004128  	0,012773  	0,003967  	0,003966  	0,004533  	0,000000  	-0,000000  	24,061743  	19,522036  	21,420675  	26,912725  	38,300317  	35,809920  	37,867058  	41,176223  	51,343262  	49,318374  	53,049258  	70,156415  	22,757022  	20,604075  	21,948391  	74,886196  	-0,020536  	-0,010406  	1636,218900  	32742,182326  	-0,035224  	-0,049998  	0,448434  	0,227225  	-3,783919  	18893,407087  	3682,624308  	0,534119  	-0,047949  
151,547000  	13,447127  	51,024573  	657,272221  	657,183579  	79,867561  	75,903035  	0,004121  	0,012917  	0,003964  	0,004003  	0,004495  	-0,000001  	-0,000000  	24,063596  	19,532722  	21,427852  	26,911107  	38,304056  	35,814931  	37,871640  	41,177736  	51,343428  	49,317971  	53,050887  	70,163173  	22,748543  	20,611678  	21,954533  	74,890545  	0,009341  	0,004733  	-744,329118  	-1,810923  	-0,018203  	-0,050008  	0,418290  	0,211951  	-3,523992  	19204,582932  	3523,735586  	0,511075  	-0,047958  
152,549000  	13,449148  	51,023954  	1256,818530  	1256,670793  	79,865999  	75,900227  	0,004121  	0,012762  	0,003967  	0,004002  	0,004651  	-0,000000  	-0,000000  	24,062892  	19,533683  	21,428159  	26,912592  	38,307712  	35,812882  	37,865731  	41,176801  	51,343619  	49,323473  	53,049811  	70,161315  	22,745478  	20,621613  	21,964752  	74,891051  	0,008027  	0,004067  	-639,577716  	-1,993571  	-0,011068  	-0,050000  	0,541711  	0,274489  	-4,565213  	18871,731645  	3538,133155  	0,513163  	-0,047952  
153,547000  	13,450097  	51,023427  	957,045375  	1256,670793  	79,869498  	75,893831  	0,004124  	0,012876  	0,003965  	0,004078  	0,004406  	0,000001  	-0,000000  	24,059640  	19,531977  	21,434006  	26,911640  	38,308493  	35,815283  	37,860798  	41,163891  	51,339927  	49,315820  	53,050456  	70,161204  	22,720707  	20,630611  	21,957337  	74,898431  	0,069977  	0,035458  	-5575,300115  	4416,119823  	-0,012269  	-0,049992  	0,348127  	0,176398  	-2,941118  	19116,582999  	3591,465593  	0,520898  	-0,047944  
154,551000  	13,451506  	51,022684  	357,499067  	1256,670793  	79,869560  	75,892770  	0,004123  	0,012888  	0,003967  	0,004094  	0,004623  	0,000000  	-0,000000  	24,057939  	19,534348  	21,429384  	26,917191  	38,294156  	35,808231  	37,857624  	41,175496  	51,353156  	49,326249  	53,048129  	70,163673  	22,719392  	20,634870  	21,958926  	74,911478  	0,083152  	0,042134  	-6624,640387  	16230,563485  	-0,015675  	-0,049998  	0,519332  	0,263150  	-4,388774  	19142,225799  	3571,807509  	0,518047  	-0,047950  
155,547000  	13,454538  	51,021848  	1256,818530  	1256,670793  	79,864687  	75,896889  	0,004121  	0,012754  	0,003964  	0,004092  	0,004531  	0,000001  	-0,000000  	24,057897  	19,531312  	21,420433  	26,895004  	38,301591  	35,806235  	37,856179  	41,170223  	51,333745  	49,319890  	53,044794  	70,167020  	22,695168  	20,628126  	21,960803  	74,896539  	0,081084  	0,041086  	-6459,192899  	-1,993305  	-0,011067  	-0,049993  	0,446570  	0,226280  	-3,765341  	18853,238295  	3529,610416  	0,511927  	-0,047945  
156,550000  	13,457355  	51,021291  	57,725912  	1256,670793  	79,864124  	75,893831  	0,004124  	0,012869  	0,003966  	0,004104  	0,004593  	-0,000000  	-0,000000  	24,050029  	19,507837  	21,410527  	26,896862  	38,284403  	35,791877  	37,839878  	41,149588  	51,321494  	49,302420  	53,038123  	70,142342  	22,679002  	20,618378  	21,938188  	74,882609  	0,091106  	0,046164  	-7256,935357  	24492,069091  	-0,018202  	-0,050002  	0,495543  	0,251095  	-4,180894  	19101,275280  	3606,350378  	0,523057  	-0,047953  
157,547000  	13,462163  	51,019650  	-242,047242  	1256,670793  	79,866561  	75,887996  	0,004122  	0,012821  	0,003966  	0,004030  	0,004474  	0,000000  	-0,000000  	24,062552  	19,525741  	21,417572  	26,897195  	38,307513  	35,808830  	37,868194  	41,176957  	51,339409  	49,317649  	53,042267  	70,171975  	22,666612  	20,643709  	21,965572  	74,897017  	0,030709  	0,015560  	-2445,634773  	35506,970964  	-0,021695  	-0,049997  	0,401465  	0,203425  	-3,394209  	18997,444117  	3564,506339  	0,516988  	-0,047949  
158,549000  	13,467307  	51,019588  	357,499067  	1256,670793  	79,865436  	75,892427  	0,004121  	0,012839  	0,003967  	0,004026  	0,004507  	0,000001  	-0,000000  	24,062517  	19,527263  	21,431255  	26,907715  	38,294084  	35,810768  	37,857877  	41,174906  	51,335857  	49,322330  	53,050841  	70,165240  	22,670973  	20,647633  	21,972378  	74,895010  	0,027769  	0,014071  	-2211,185600  	16228,914906  	-0,015674  	-0,049993  	0,428067  	0,216905  	-3,614071  	19035,774964  	3527,887509  	0,511677  	-0,047945  
159,547000  	13,470523  	51,017451  	1256,818530  	357,439972  	79,864968  	75,895484  	0,004126  	0,012933  	0,003966  	0,004048  	0,004425  	0,000000  	-0,000000  	24,053766  	19,523446  	21,415264  	26,892734  	38,293777  	35,804505  	37,853422  	41,162738  	51,337205  	49,310728  	53,039116  	70,164690  	22,650888  	20,639210  	21,959617  	74,892393  	0,045666  	0,023139  	-3635,796015  	-16234,082665  	-0,015675  	-0,049999  	0,362729  	0,183798  	-3,059722  	19240,279957  	3648,116745  	0,529115  	-0,047951  
160,550000  	13,473156  	51,017575  	57,725912  	956,927186  	79,864905  	75,892364  	0,004121  	0,012746  	0,003964  	0,004089  	0,004532  	0,000000  	-0,000000  	24,054914  	19,521558  	21,415207  	26,903103  	38,290350  	35,798006  	37,857162  	41,153848  	51,336897  	49,312641  	53,039374  	70,153165  	22,664504  	20,651627  	21,956366  	74,886778  	0,078989  	0,040024  	-6288,506929  	21302,370122  	-0,021694  	-0,049995  	0,447667  	0,226836  	-3,779100  	18836,071407  	3536,198416  	0,512882  	-0,047947  
161,548000  	13,477811  	51,017544  	957,045375  	1256,670793  	79,865999  	75,892707  	0,004125  	0,012811  	0,003968  	0,004017  	0,004471  	0,000000  	-0,000000  	24,053884  	19,521414  	21,417875  	26,899043  	38,299591  	35,804549  	37,859318  	41,164375  	51,340578  	49,320771  	53,039599  	70,166308  	22,657524  	20,661056  	21,956903  	74,895487  	0,020157  	0,010214  	-1604,558584  	4416,675812  	-0,012270  	-0,049999  	0,399626  	0,202494  	-3,374189  	18977,342742  	3617,584577  	0,524686  	-0,047950  
162,549000  	13,480628  	51,016801  	357,499067  	1256,670793  	79,864249  	75,888464  	0,004120  	0,012880  	0,003966  	0,004054  	0,004464  	0,000001  	-0,000000  	24,050841  	19,514168  	21,422243  	26,895764  	38,289604  	35,797155  	37,846286  	41,156776  	51,329033  	49,317737  	53,039544  	70,156512  	22,652770  	20,672632  	21,950518  	74,883797  	0,050208  	0,025441  	-3996,271415  	16227,391130  	-0,015672  	-0,049987  	0,393698  	0,199489  	-3,326216  	19125,725326  	3521,984435  	0,510821  	-0,047941  
163,547000  	13,483476  	51,015872  	357,499067  	357,439972  	79,864031  	75,891834  	0,004127  	0,012804  	0,003966  	0,004041  	0,004531  	-0,000000  	-0,000000  	24,058554  	19,521681  	21,424520  	26,907534  	38,291217  	35,803798  	37,865286  	41,174600  	51,342319  	49,317194  	53,047352  	70,169472  	22,662678  	20,687957  	21,957620  	74,894828  	0,040059  	0,020298  	-3188,151097  	-1,685274  	-0,026852  	-0,050001  	0,446921  	0,226458  	-3,772473  	18961,452794  	3654,182224  	0,529994  	-0,047952  
164,549000  	13,488437  	51,014385  	957,045375  	956,927186  	79,865030  	75,893956  	0,004117  	0,012789  	0,003966  	0,004037  	0,004593  	-0,000000  	-0,000000  	24,054653  	19,517041  	21,415958  	26,892052  	38,286943  	35,803227  	37,858482  	41,166301  	51,327860  	49,307322  	53,038592  	70,151475  	22,657849  	20,681953  	21,953343  	74,879361  	0,036461  	0,018475  	-2901,270837  	-1,917290  	-0,013767  	-0,050006  	0,495895  	0,251274  	-4,184691  	18929,162123  	3438,204563  	0,498669  	-0,047957  
165,548000  	13,496521  	51,014447  	1256,818530  	57,696365  	79,858220  	75,889462  	0,004129  	0,012751  	0,003968  	0,003985  	0,004493  	-0,000001  	-0,000000  	24,044945  	19,504226  	21,411281  	26,889443  	38,277818  	35,792977  	37,845097  	41,156172  	51,322752  	49,295343  	53,032837  	70,147206  	22,650880  	20,683548  	21,941790  	74,877806  	-0,005411  	-0,002742  	430,443742  	-24499,221387  	-0,018204  	-0,050013  	0,416673  	0,211131  	-3,514106  	18846,356259  	3698,624745  	0,536440  	-0,047963  
166,551000  	13,499277  	51,013580  	1256,818530  	657,183579  	79,856283  	75,892083  	0,004116  	0,012906  	0,003967  	0,004026  	0,004510  	0,000000  	-0,000000  	24,048992  	19,504951  	21,415350  	26,893712  	38,285834  	35,798880  	37,844716  	41,152824  	51,325274  	49,294761  	53,026556  	70,160590  	22,661225  	20,698579  	21,942816  	74,885171  	0,027869  	0,014122  	-2216,950445  	-9726,193462  	-0,013765  	-0,050000  	0,429902  	0,217834  	-3,621510  	19180,682572  	3433,459508  	0,497981  	-0,047951  
167,547000  	13,499277  	51,012930  	1256,818530  	-242,047242  	79,857064  	75,886529  	0,004130  	0,012882  	0,003966  	0,003980  	0,004487  	0,000000  	-0,000000  	24,048171  	19,508661  	21,412968  	26,896758  	38,284801  	35,798670  	37,847160  	41,152531  	51,326444  	49,306880  	53,025733  	70,161143  	22,670172  	20,712292  	21,946607  	74,888918  	-0,009241  	-0,004683  	735,123088  	-35508,002763  	-0,021694  	-0,049997  	0,412101  	0,208815  	-3,477104  	19128,729849  	3731,254057  	0,541173  	-0,047949  
168,550000  	13,498604  	51,012496  	57,725912  	956,927186  	79,858876  	75,884283  	0,004117  	0,012837  	0,003967  	0,004054  	0,004535  	0,000000  	-0,000000  	24,052450  	19,511436  	21,408551  	26,894647  	38,286084  	35,799195  	37,854648  	41,157464  	51,324394  	49,309524  	53,026294  	70,162845  	22,669656  	20,721704  	21,949791  	74,888007  	0,050260  	0,025467  	-3998,053862  	21303,794502  	-0,021696  	-0,049999  	0,449610  	0,227821  	-3,797461  	19033,489205  	3457,926196  	0,501530  	-0,047950  
169,548000  	13,505524  	51,010391  	1256,818530  	57,696365  	79,860813  	75,888152  	0,004126  	0,012856  	0,003968  	0,004068  	0,004517  	0,000001  	-0,000000  	24,058847  	19,517895  	21,411644  	26,895661  	38,291526  	35,802041  	37,857107  	41,161337  	51,325830  	49,306301  	53,034326  	70,163844  	22,676826  	20,729951  	21,951507  	74,890741  	0,061671  	0,031249  	-4904,614866  	-24486,613867  	-0,018195  	-0,049984  	0,435368  	0,220604  	-3,675384  	19073,856082  	3649,860835  	0,529368  	-0,047938  
170,547000  	13,512874  	51,010638  	657,272221  	657,183579  	79,861188  	75,887341  	0,004120  	0,012875  	0,003968  	0,004014  	0,004546  	0,000001  	-0,000000  	24,055932  	19,519975  	21,408672  	26,894694  	38,293193  	35,801022  	37,852588  	41,157110  	51,326939  	49,303401  	53,034974  	70,159116  	22,672277  	20,731951  	21,951728  	74,894392  	0,017572  	0,008904  	-1397,170876  	-1,810241  	-0,018196  	-0,049987  	0,458728  	0,232441  	-3,873749  	19115,095240  	3513,348718  	0,509568  	-0,047940  
171,547000  	13,517100  	51,010360  	-242,047242  	657,183579  	79,865718  	75,887247  	0,004123  	0,012881  	0,003967  	0,004054  	0,004531  	-0,000000  	-0,000000  	24,051487  	19,518961  	21,410018  	26,901466  	38,290581  	35,799008  	37,853286  	41,152078  	51,326031  	49,303305  	53,034780  	70,158117  	22,668010  	20,732390  	21,955646  	74,892168  	0,050010  	0,025340  	-3975,927410  	32745,613582  	-0,035227  	-0,050003  	0,447045  	0,226521  	-3,779482  	19127,731643  	3575,655805  	0,518605  	-0,047954  
172,548000  	13,518570  	51,010298  	-242,047242  	1256,670793  	79,865280  	75,890430  	0,004124  	0,012794  	0,003964  	0,004020  	0,004497  	0,000000  	-0,000000  	24,049226  	19,517136  	21,414165  	26,906238  	38,286572  	35,797522  	37,854173  	41,152751  	51,328106  	49,304931  	53,041968  	70,162323  	22,676661  	20,733425  	21,956106  	74,884325  	0,022646  	0,011475  	-1800,364011  	35506,079058  	-0,021695  	-0,049995  	0,420218  	0,212927  	-3,549442  	18939,734198  	3595,688127  	0,521510  	-0,047947  
173,547000  	13,523132  	51,010731  	-242,047242  	-242,047242  	79,866186  	75,893737  	0,004121  	0,012873  	0,003966  	0,004064  	0,004517  	0,000002  	-0,000000  	24,043442  	19,507046  	21,402743  	26,892193  	38,281861  	35,794678  	37,844361  	41,147288  	51,324579  	49,297254  	53,034091  	70,161211  	22,675319  	20,728969  	21,942773  	74,873977  	0,058587  	0,029686  	-4657,153526  	-0,000000  	-0,544224  	-0,049979  	0,435953  	0,220901  	-3,680129  	19110,150191  	3532,992679  	0,512417  	-0,047933  
174,550000  	13,529380  	51,010360  	357,499067  	357,439972  	79,867124  	75,893175  	0,004126  	0,012861  	0,003968  	0,004048  	0,004533  	-0,000000  	-0,000000  	24,042028  	19,503550  	21,404446  	26,895876  	38,276028  	35,790284  	37,839318  	41,140961  	51,322847  	49,294291  	53,028683  	70,155837  	22,683822  	20,729189  	21,935739  	74,875407  	0,045416  	0,023012  	-3609,513936  	-1,685427  	-0,026855  	-0,050006  	0,448346  	0,227180  	-3,786177  	19085,149752  	3650,249195  	0,529424  	-0,047957  
175,550000  	13,534157  	51,009152  	1256,818530  	357,439972  	79,866842  	75,897856  	0,004119  	0,012838  	0,003965  	0,004072  	0,004469  	0,000001  	-0,000000  	24,054766  	19,515161  	21,414150  	26,899942  	38,285181  	35,797330  	37,851848  	41,153873  	51,333593  	49,302415  	53,029155  	70,166190  	22,694449  	20,734083  	21,948113  	74,886929  	0,064901  	0,032886  	-5157,327955  	-16231,973687  	-0,015673  	-0,049992  	0,397912  	0,201625  	-3,356077  	19034,514295  	3499,777296  	0,507600  	-0,047945  
176,548000  	13,533912  	51,009338  	57,725912  	-242,047242  	79,865530  	75,897232  	0,004124  	0,012853  	0,003966  	0,004004  	0,004583  	0,000000  	-0,000000  	24,053979  	19,517819  	21,415229  	26,896650  	38,284330  	35,804496  	37,849047  	41,155315  	51,326906  	49,300000  	53,026858  	70,164874  	22,712228  	20,737667  	21,945587  	74,885291  	0,010078  	0,005107  	-800,865523  	-27697,837177  	-0,093553  	-0,049996  	0,488384  	0,247468  	-4,118424  	19067,405588  	3608,758211  	0,523406  	-0,047948  
177,548000  	13,528430  	51,008935  	1256,818530  	-242,047242  	79,864093  	75,895578  	0,004121  	0,012878  	0,003966  	0,004061  	0,004484  	-0,000000  	-0,000000  	24,048255  	19,516903  	21,413134  	26,893193  	38,289977  	35,802635  	37,849932  	41,157556  	51,325613  	49,300719  	53,031221  	70,166864  	22,722308  	20,742476  	21,949327  	74,889089  	0,055941  	0,028346  	-4445,963114  	-35510,348283  	-0,021695  	-0,050001  	0,409971  	0,207735  	-3,457372  	19120,314070  	3540,293850  	0,513476  	-0,047952  
178,548000  	13,523102  	51,009926  	1256,818530  	-242,047242  	79,859220  	75,894954  	0,004126  	0,012857  	0,003965  	0,004022  	0,004549  	-0,000000  	-0,000000  	24,049492  	19,516513  	21,418187  	26,895532  	38,283141  	35,796332  	37,853122  	41,155792  	51,330393  	49,298966  	53,032903  	70,169968  	22,729803  	20,741945  	21,948168  	74,888290  	0,024082  	0,012202  	-1914,252655  	-35513,195672  	-0,021697  	-0,050006  	0,461305  	0,233747  	-3,886117  	19076,437553  	3645,673606  	0,528760  	-0,047956  
179,548000  	13,520713  	51,010762  	357,499067  	657,183579  	79,856970  	75,892988  	0,004118  	0,012903  	0,003968  	0,004026  	0,004495  	0,000000  	-0,000000  	24,049855  	19,513456  	21,413963  	26,899839  	38,286610  	35,800664  	37,862560  	41,159388  	51,332744  	49,304545  	53,031517  	70,161554  	22,729906  	20,740909  	21,948799  	74,884818  	0,027625  	0,013998  	-2196,122643  	7099,915064  	-0,021695  	-0,049998  	0,418577  	0,212096  	-3,525914  	19175,417050  	3467,571650  	0,502929  	-0,047950  
180,548000  	13,524082  	51,009709  	-242,047242  	1256,670793  	79,849910  	75,895235  	0,004130  	0,012860  	0,003964  	0,004066  	0,004447  	0,000000  	-0,000000  	24,057279  	19,515718  	21,419180  	26,887457  	38,282943  	35,803459  	37,854246  	41,158221  	51,321844  	49,298074  	53,028495  	70,161129  	22,730133  	20,741526  	21,957611  	74,878827  	0,060006  	0,030405  	-4769,678023  	35507,995485  	-0,021696  	-0,049998  	0,380093  	0,192596  	-3,194225  	19082,885217  	3735,737852  	0,541823  	-0,047950  
181,547000  	13,533361  	51,008688  	1256,818530  	1256,670793  	79,854721  	75,895547  	0,004118  	0,012877  	0,003966  	0,004135  	0,004503  	0,000000  	-0,000000  	24,047281  	19,504151  	21,412008  	26,890203  	38,274862  	35,793899  	37,850575  	41,150460  	51,320511  	49,299746  	53,025839  	70,148427  	22,735535  	20,732683  	21,951073  	74,876081  	0,116370  	0,058966  	-9247,365146  	-1,993532  	-0,011068  	-0,049999  	0,424370  	0,215032  	-3,570385  	19117,813955  	3479,158904  	0,504609  	-0,047951  
182,549000  	13,535994  	51,007820  	1256,818530  	657,183579  	79,852159  	75,890118  	0,004129  	0,012861  	0,003967  	0,004004  	0,004394  	0,000002  	-0,000000  	24,062705  	19,508511  	21,401554  	26,878033  	38,290377  	35,796879  	37,848517  	41,148048  	51,311623  	49,288245  	53,019026  	70,167012  	22,734757  	20,732349  	21,934308  	74,876617  	0,010212  	0,005174  	-811,406799  	-9720,992636  	-0,013758  	-0,049970  	0,338537  	0,171539  	-2,850292  	19084,246344  	3704,358353  	0,537272  	-0,047926  
183,548000  	13,534065  	51,007356  	1256,818530  	657,183579  	79,852909  	75,885718  	0,004120  	0,012903  	0,003964  	0,004136  	0,004506  	-0,000002  	-0,000000  	24,048970  	19,511177  	21,408381  	26,892654  	38,278190  	35,794483  	37,842707  	41,155888  	51,322109  	49,306649  	53,036754  	70,155531  	22,749249  	20,738995  	21,942334  	74,878565  	0,116716  	0,059141  	-9274,369586  	-9730,277485  	-0,013771  	-0,050023  	0,427176  	0,216453  	-3,601258  	19175,126290  	3514,005399  	0,509663  	-0,047971  
184,549000  	13,536147  	51,006675  	1256,818530  	1256,670793  	79,854596  	75,890586  	0,004129  	0,012800  	0,003968  	0,003987  	0,004499  	-0,000000  	-0,000000  	24,064317  	19,511900  	21,409237  	26,893948  	38,284281  	35,801990  	37,852169  	41,156728  	51,322510  	49,295995  	53,031781  	70,164340  	22,740596  	20,741884  	21,951882  	74,876631  	-0,003962  	-0,002007  	314,788120  	-1,993588  	-0,011068  	-0,050001  	0,421864  	0,213762  	-3,553632  	18952,880670  	3702,826096  	0,537050  	-0,047952  
185,547000  	13,539975  	51,006551  	957,045375  	-242,047242  	79,851878  	75,889057  	0,004121  	0,012855  	0,003967  	0,004058  	0,004488  	0,000001  	-0,000001  	24,062704  	19,510309  	21,410581  	26,908226  	38,281841  	35,795874  	37,852227  	41,152404  	51,320483  	49,302852  	53,030227  	70,148750  	22,752250  	20,730609  	21,948557  	74,879125  	0,053489  	0,027103  	-4249,485080  	-34184,974995  	-0,026844  	-0,049985  	0,412781  	0,209159  	-3,476073  	19070,788596  	3525,084255  	0,511270  	-0,047939  
186,548000  	13,540710  	51,006365  	357,499067  	357,439972  	79,846255  	75,888870  	0,004126  	0,012872  	0,003966  	0,004019  	0,004533  	-0,000001  	-0,000000  	24,063514  	19,514033  	21,412864  	26,897032  	38,290959  	35,810374  	37,861213  	41,171153  	51,336905  	49,302226  	53,035333  	70,166930  	22,765772  	20,750268  	21,947286  	74,888081  	0,022291  	0,011295  	-1770,887409  	-1,685530  	-0,026857  	-0,050010  	0,448596  	0,227307  	-3,772497  	19108,616448  	3648,822854  	0,529217  	-0,047960  
187,547000  	13,540710  	51,007201  	357,499067  	357,439972  	79,850410  	75,886093  	0,004124  	0,012867  	0,003964  	0,004062  	0,004446  	0,000000  	-0,000000  	24,045170  	19,510607  	21,410360  	26,894679  	38,286416  	35,796067  	37,840943  	41,149442  	51,319392  	49,294960  	53,025799  	70,151897  	22,765115  	20,744886  	21,940328  	74,877590  	0,057116  	0,028941  	-4537,693090  	-1,685180  	-0,026851  	-0,049998  	0,379349  	0,192219  	-3,195745  	19097,136720  	3597,043857  	0,521707  	-0,047950  
188,550000  	13,541200  	51,007820  	957,045375  	-242,047242  	79,853409  	75,882224  	0,004123  	0,012863  	0,003967  	0,004115  	0,004511  	-0,000001  	-0,000000  	24,059664  	19,508101  	21,409974  	26,889174  	38,283813  	35,800174  	37,846792  	41,151499  	51,324247  	49,298448  	53,030596  	70,152187  	22,775287  	20,738777  	21,943551  	74,879741  	0,100067  	0,050705  	-7950,005888  	-34205,024536  	-0,026859  	-0,050018  	0,430589  	0,218183  	-3,633685  	19089,096594  	3574,787291  	0,518479  	-0,047967  
189,548000  	13,544201  	51,008657  	57,725912  	956,927186  	79,850097  	75,891740  	0,004123  	0,012766  	0,003968  	0,004091  	0,004519  	0,000001  	-0,000000  	24,055159  	19,519051  	21,411144  	26,899806  	38,284728  	35,799143  	37,858571  	41,147203  	51,315682  	49,302824  	53,039507  	70,160620  	22,778329  	20,744010  	21,948232  	74,876108  	0,079998  	0,040536  	-6355,239697  	21297,491662  	-0,021689  	-0,049982  	0,437549  	0,221709  	-3,680502  	18879,835441  	3575,119162  	0,518527  	-0,047936  
190,548000  	13,545120  	51,008099  	1256,818530  	-242,047242  	79,850784  	75,883752  	0,004122  	0,012868  	0,003968  	0,004040  	0,004476  	0,000002  	-0,000000  	24,060317  	19,518166  	21,408878  	26,894180  	38,283371  	35,797943  	37,855787  	41,151086  	51,325488  	49,301913  	53,038861  	70,159925  	22,781272  	20,734510  	21,949844  	74,881856  	0,038815  	0,019668  	-3083,394799  	-35497,226893  	-0,021687  	-0,049980  	0,403519  	0,204466  	-3,401684  	19098,586277  	3545,278982  	0,514199  	-0,047935  
191,547000  	13,544293  	51,008285  	357,499067  	-242,047242  	79,849816  	75,880102  	0,004125  	0,012777  	0,003966  	0,004026  	0,004437  	0,000001  	-0,000000  	24,059521  	19,518015  	21,411319  	26,899915  	38,287178  	35,806535  	37,858228  	41,161518  	51,328625  	49,303626  	53,036259  	70,159255  	22,764365  	20,734512  	21,942085  	74,881393  	0,027467  	0,013918  	-2182,010818  	-30937,843489  	-0,051169  	-0,049991  	0,372383  	0,188689  	-3,141331  	18902,724153  	3612,041619  	0,523882  	-0,047943  
192,547000  	13,544170  	51,009214  	957,045375  	956,927186  	79,851940  	75,881600  	0,004120  	0,012838  	0,003966  	0,004003  	0,004555  	0,000000  	-0,000000  	24,052983  	19,507669  	21,412460  	26,898545  	38,280647  	35,797219  	37,849658  	41,151658  	51,318408  	49,299682  	53,028528  	70,148637  	22,768044  	20,724491  	21,938513  	74,878009  	0,009028  	0,004575  	-717,251570  	-1,916975  	-0,013765  	-0,049997  	0,466213  	0,236234  	-3,933476  	19034,722991  	3516,851020  	0,510076  	-0,047949  
193,548000  	13,544875  	51,009895  	1256,818530  	-242,047242  	79,847598  	75,881631  	0,004129  	0,012702  	0,003965  	0,004030  	0,004452  	-0,000001  	-0,000000  	24,049376  	19,507413  	21,411740  	26,895259  	38,284503  	35,801049  	37,848942  	41,152778  	51,321143  	49,302610  	53,027722  	70,149689  	22,770351  	20,719106  	21,941432  	74,878632  	0,031108  	0,015762  	-2471,290198  	-35518,302769  	-0,021700  	-0,050014  	0,384533  	0,194846  	-3,240762  	18741,159726  	3715,303048  	0,538859  	-0,047963  
194,548000  	13,541813  	51,009214  	1256,818530  	357,439972  	79,844411  	75,881818  	0,004120  	0,012900  	0,003968  	0,004002  	0,004508  	0,000001  	-0,000000  	24,051456  	19,511411  	21,414294  	26,904782  	38,290061  	35,805828  	37,846893  	41,159686  	51,317480  	49,304578  	53,028653  	70,148411  	22,766517  	20,714321  	21,937059  	74,875064  	0,008400  	0,004257  	-667,398437  	-16232,357678  	-0,015673  	-0,049994  	0,428374  	0,217060  	-3,607173  	19168,868929  	3507,283239  	0,508688  	-0,047946  
195,548000  	13,540894  	51,009586  	357,499067  	357,439972  	79,844786  	75,881256  	0,004123  	0,012874  	0,003966  	0,003926  	0,004521  	-0,000001  	-0,000000  	24,049069  	19,512417  	21,409777  	26,899091  	38,285341  	35,802234  	37,847736  	41,159759  	51,314991  	49,302953  	53,026214  	70,147618  	22,759994  	20,700784  	21,933954  	74,863137  	-0,053297  	-0,027006  	4234,471947  	-1,685667  	-0,026859  	-0,050014  	0,439223  	0,222558  	-3,699403  	19111,490802  	3582,363844  	0,519578  	-0,047963  
196,547000  	13,542609  	51,010638  	957,045375  	-242,047242  	79,846661  	75,879634  	0,004119  	0,012868  	0,003965  	0,003999  	0,004509  	0,000000  	-0,000000  	24,048337  	19,510570  	21,406467  	26,897234  	38,287222  	35,798113  	37,849967  	41,159781  	51,320641  	49,303950  	53,023901  	70,148865  	22,754403  	20,680512  	21,935242  	74,862020  	0,005853  	0,002966  	-465,004930  	-34193,781569  	-0,026851  	-0,050000  	0,429592  	0,217678  	-3,621477  	19098,381825  	3498,838171  	0,507464  	-0,047951  
197,549000  	13,545610  	51,010329  	1256,818530  	1256,670793  	79,843349  	75,880632  	0,004130  	0,012876  	0,003966  	0,004065  	0,004526  	0,000002  	-0,000000  	24,047514  	19,505034  	21,403916  	26,899677  	38,291453  	35,790833  	37,847451  	41,157811  	51,320103  	49,299582  	53,021969  	70,151028  	22,744923  	20,655502  	21,930299  	74,865668  	0,059552  	0,030175  	-4730,934484  	-1,992454  	-0,011062  	-0,049969  	0,443215  	0,224581  	-3,732262  	19115,798441  	3719,116038  	0,539412  	-0,047925  
198,547000  	13,546161  	51,011444  	657,272221  	1256,670793  	79,846161  	75,886249  	0,004119  	0,012887  	0,003966  	0,004037  	0,004490  	-0,000000  	-0,000000  	24,048853  	19,505080  	21,398794  	26,893384  	38,292170  	35,795189  	37,848699  	41,156563  	51,316916  	49,299100  	53,021815  	70,153042  	22,733597  	20,625927  	21,931158  	74,862204  	0,036731  	0,018612  	-2918,046113  	9723,197774  	-0,013766  	-0,050004  	0,414687  	0,210125  	-3,489557  	19139,623813  	3480,980666  	0,504874  	-0,047954  
199,550000  	13,542762  	51,011536  	-242,047242  	357,439972  	79,853253  	75,885094  	0,004129  	0,012835  	0,003964  	0,004046  	0,004505  	-0,000001  	-0,000000  	24,056268  	19,509771  	21,400661  	26,901071  	38,295840  	35,804030  	37,852218  	41,158451  	51,316760  	49,303875  	53,023374  	70,153946  	22,728374  	20,595936  	21,937422  	74,867350  	0,044202  	0,022398  	-3511,930355  	30946,715367  	-0,051189  	-0,050007  	0,426616  	0,216169  	-3,597414  	19028,629050  	3697,897453  	0,536335  	-0,047958  
200,548000  	13,542639  	51,013085  	957,045375  	956,927186  	79,855252  	75,879415  	0,004118  	0,012752  	0,003969  	0,004034  	0,004470  	-0,000000  	-0,000000  	24,055663  	19,513540  	21,404696  	26,904792  	38,294199  	35,801020  	37,856069  	41,157033  	51,321413  	49,301021  	53,027100  	70,163092  	22,718219  	20,582798  	21,936141  	74,878212  	0,034092  	0,017275  	-2708,770205  	-1,917159  	-0,013766  	-0,050002  	0,398860  	0,202105  	-3,369869  	18850,179298  	3467,614016  	0,502935  	-0,047953  
201,548000  	13,546682  	51,012434  	57,725912  	956,927186  	79,857345  	75,883066  	0,004127  	0,012922  	0,003964  	0,004075  	0,004510  	-0,000001  	-0,000000  	24,065328  	19,521398  	21,414354  	26,909852  	38,294340  	35,810424  	37,854681  	41,159145  	51,325945  	49,311204  	53,035547  	70,154313  	22,718389  	20,583247  	21,946054  	74,879818  	0,067711  	0,034309  	-5379,251438  	21306,844514  	-0,021699  	-0,050007  	0,430066  	0,217918  	-3,632099  	19215,141566  	3656,088719  	0,530271  	-0,047957  
202,606000  	13,546865  	51,013054  	657,272221  	357,439972  	79,858782  	75,881756  	0,004120  	0,012846  	0,003969  	0,003992  	0,004531  	0,000001  	-0,000000  	24,061951  	19,516283  	21,405280  	26,904415  	38,286554  	35,797001  	37,853534  	41,156833  	51,317265  	49,301590  	53,034737  	70,149963  	22,711179  	20,569965  	21,938338  	74,862473  	0,000092  	0,000047  	-7,298650  	-7102,292554  	-0,021692  	-0,049990  	0,446636  	0,226314  	-3,774647  	19051,865826  	3516,321438  	0,509999  	-0,047943  
203,548000  	13,543558  	51,013797  	657,272221  	357,439972  	79,856627  	75,883284  	0,004127  	0,012849  	0,003962  	0,004019  	0,004405  	0,000002  	-0,000000  	24,062451  	19,508951  	21,409771  	26,897629  	38,288397  	35,802154  	37,858522  	41,152026  	51,314263  	49,299243  	53,028228  	70,149296  	22,697741  	20,562912  	21,926640  	74,864546  	0,022226  	0,011262  	-1765,973905  	-7100,217515  	-0,021685  	-0,049974  	0,346974  	0,175814  	-2,929657  	19058,774745  	3659,965259  	0,530833  	-0,047929  
204,547000  	13,539944  	51,012930  	1256,818530  	956,927186  	79,854440  	75,891147  	0,004121  	0,012849  	0,003966  	0,003985  	0,004555  	-0,000001  	-0,000000  	24,060435  	19,514567  	21,409503  	26,902151  	38,287513  	35,802498  	37,858939  	41,154454  	51,314795  	49,305629  	53,029408  	70,146674  	22,702762  	20,558680  	21,937252  	74,867258  	-0,005253  	-0,002661  	417,364891  	-4421,578867  	-0,012273  	-0,050012  	0,465905  	0,236078  	-3,923907  	19058,109038  	3525,536165  	0,511336  	-0,047962  
205,549000  	13,534984  	51,013487  	1256,818530  	-242,047242  	79,855189  	75,898480  	0,004123  	0,012858  	0,003966  	0,004029  	0,004471  	-0,000000  	-0,000000  	24,067282  	19,523332  	21,415294  	26,900703  	38,297835  	35,799023  	37,864194  	41,162623  	51,327204  	49,306377  	53,034556  	70,158316  	22,688684  	20,555913  	21,937986  	74,865230  	0,030185  	0,015295  	-2398,832861  	-35510,941164  	-0,021695  	-0,050002  	0,399047  	0,202200  	-3,355243  	19077,500845  	3573,106750  	0,518235  	-0,047953  
206,548000  	13,534677  	51,013983  	1256,818530  	357,439972  	79,852065  	75,891303  	0,004124  	0,012894  	0,003964  	0,004059  	0,004498  	-0,000001  	-0,000000  	24,063292  	19,524685  	21,429503  	26,911193  	38,293325  	35,812137  	37,861477  	41,161378  	51,332121  	49,313702  	53,044198  	70,156096  	22,693862  	20,551746  	21,943520  	74,872802  	0,054188  	0,027457  	-4306,504720  	-16239,255249  	-0,015680  	-0,050017  	0,420589  	0,213115  	-3,539984  	19154,843101  	3608,842944  	0,523418  	-0,047966  
207,550000  	13,535688  	51,015190  	357,499067  	1256,670793  	79,846786  	75,885562  	0,004125  	0,012790  	0,003966  	0,004027  	0,004429  	0,000002  	-0,000000  	24,067618  	19,529297  	21,423829  	26,901846  	38,298474  	35,809502  	37,861262  	41,158415  	51,324463  	49,310821  	53,039813  	70,162384  	22,679711  	20,540124  	21,928600  	74,861340  	0,028650  	0,014517  	-2276,960438  	16225,595166  	-0,015670  	-0,049981  	0,365740  	0,185323  	-3,078696  	18931,005727  	3627,794918  	0,526167  	-0,047935  
208,548000  	13,536668  	51,014385  	-242,047242  	57,696365  	79,846973  	75,886935  	0,004127  	0,012872  	0,003970  	0,003963  	0,004512  	0,000000  	-0,000000  	24,061358  	19,514112  	21,418731  	26,919760  	38,289518  	35,808790  	37,853113  	41,160825  	51,323175  	49,309748  	53,036561  	70,137880  	22,679480  	20,539893  	21,925482  	74,860472  	-0,023164  	-0,011737  	1840,824936  	27696,739658  	-0,093559  	-0,049995  	0,431497  	0,218642  	-3,631126  	19107,552449  	3665,783600  	0,531677  	-0,047947  
209,547000  	13,540924  	51,015903  	957,045375  	956,927186  	79,850285  	75,891179  	0,004118  	0,012834  	0,003965  	0,004093  	0,004471  	0,000000  	-0,000000  	24,064868  	19,531542  	21,418106  	26,912691  	38,309405  	35,820710  	37,875950  	41,172709  	51,324820  	49,310944  	53,042212  	70,161178  	22,672798  	20,532272  	21,938687  	74,863849  	0,081841  	0,041470  	-6503,459585  	-1,916913  	-0,013764  	-0,049995  	0,399650  	0,202506  	-3,362343  	19026,765637  	3472,182544  	0,503598  	-0,047947  
210,547000  	13,541353  	51,015717  	357,499067  	357,439972  	79,852534  	75,878448  	0,004125  	0,012793  	0,003968  	0,004024  	0,004551  	0,000001  	-0,000000  	24,061177  	19,521607  	21,422671  	26,911930  	38,295092  	35,809826  	37,852835  	41,156687  	51,312168  	49,308680  	53,034462  	70,141873  	22,670170  	20,502295  	21,924067  	74,867105  	0,026137  	0,013244  	-2076,931154  	-1,684829  	-0,026845  	-0,049986  	0,463032  	0,234622  	-3,910323  	18937,904035  	3621,235162  	0,525216  	-0,047940  
211,548000  	13,539791  	51,016181  	357,499067  	1256,670793  	79,853377  	75,876451  	0,004118  	0,012893  	0,003967  	0,004054  	0,004465  	-0,000000  	-0,000000  	24,065835  	19,524317  	21,413451  	26,908889  	38,300111  	35,811400  	37,861653  	41,170610  	51,321971  	49,300233  	53,028554  	70,144580  	22,658162  	20,474638  	21,923256  	74,866221  	0,050662  	0,025671  	-4025,958980  	16231,353899  	-0,015676  	-0,050001  	0,394799  	0,200048  	-3,336471  	19153,417597  	3470,586737  	0,503366  	-0,047952  
212,547000  	13,537464  	51,015314  	957,045375  	57,696365  	79,853440  	75,879883  	0,004130  	0,012850  	0,003963  	0,004051  	0,004507  	0,000000  	-0,000000  	24,057263  	19,512911  	21,417235  	26,912194  	38,287890  	35,803287  	37,854029  	41,160002  	51,321203  	49,303402  	53,034926  	70,152290  	22,654198  	20,469406  	21,926819  	74,853451  	0,047647  	0,024143  	-3786,499361  	-21304,932170  	-0,021693  	-0,049995  	0,428084  	0,216913  	-3,614699  	19061,373902  	3733,400630  	0,541484  	-0,047947  
213,549000  	13,540128  	51,016986  	1256,818530  	57,696365  	79,853096  	75,885094  	0,004117  	0,012850  	0,003967  	0,004062  	0,004467  	0,000000  	-0,000000  	24,061476  	19,527098  	21,416783  	26,916441  	38,295619  	35,803125  	37,862263  	41,170684  	51,325417  	49,305535  	53,033940  	70,150828  	22,657847  	20,464113  	21,922422  	74,854513  	0,056984  	0,028874  	-4528,455868  	-24490,758977  	-0,018198  	-0,049994  	0,396513  	0,200916  	-3,343443  	19060,266749  	3457,248331  	0,501431  	-0,047946  
214,548000  	13,542762  	51,014385  	1256,818530  	1256,670793  	79,852971  	75,885094  	0,004129  	0,012793  	0,003967  	0,004110  	0,004529  	-0,000000  	-0,000000  	24,068264  	19,537177  	21,428850  	26,917765  	38,306224  	35,815027  	37,865902  	41,173263  	51,322348  	49,310049  	53,035548  	70,142290  	22,661013  	20,471694  	21,927033  	74,853604  	0,096087  	0,048688  	-7634,774417  	-1,993573  	-0,011068  	-0,050000  	0,445348  	0,225661  	-3,755111  	18937,703120  	3704,669041  	0,537317  	-0,047952  
215,549000  	13,542302  	51,013549  	357,499067  	1256,670793  	79,847317  	75,882442  	0,004120  	0,012774  	0,003966  	0,004099  	0,004457  	0,000001  	-0,000000  	24,066869  	19,529231  	21,416822  	26,912869  	38,299275  	35,805957  	37,853869  	41,164023  	51,326366  	49,303062  	53,036443  	70,141353  	22,659389  	20,465435  	21,926546  	74,854663  	0,086519  	0,043840  	-6874,512535  	16229,202546  	-0,015674  	-0,049994  	0,388101  	0,196653  	-3,269927  	18896,680441  	3518,736332  	0,510350  	-0,047946  
216,547000  	13,538015  	51,014354  	-242,047242  	1256,670793  	79,842256  	75,886873  	0,004125  	0,012894  	0,003968  	0,004084  	0,004556  	-0,000000  	-0,000000  	24,065568  	19,535267  	21,428839  	26,918859  	38,313402  	35,812452  	37,862812  	41,164480  	51,330013  	49,309261  	53,049212  	70,149583  	22,662839  	20,474117  	21,924281  	74,856231  	0,074609  	0,037805  	-5929,010535  	35509,758495  	-0,021697  	-0,050001  	0,466688  	0,236474  	-3,922654  	19156,164611  	3629,757902  	0,526452  	-0,047952  
217,550000  	13,532136  	51,014509  	-242,047242  	1256,670793  	79,839507  	75,879603  	0,004119  	0,012842  	0,003968  	0,004018  	0,004525  	0,000003  	-0,000000  	24,059146  	19,529209  	21,424620  	26,917377  	38,301539  	35,812895  	37,854667  	41,162973  	51,328625  	49,306011  	53,046998  	70,147391  	22,660909  	20,465838  	21,923071  	74,857343  	0,020949  	0,010615  	-1665,022057  	35488,779203  	-0,021684  	-0,049968  	0,442441  	0,224188  	-3,723091  	19043,029824  	3486,403586  	0,505660  	-0,047924  
218,548000  	13,528645  	51,013642  	357,499067  	1256,670793  	79,841006  	75,879353  	0,004124  	0,012873  	0,003967  	0,003958  	0,004571  	0,000000  	-0,000000  	24,059427  	19,518589  	21,413497  	26,905278  	38,293432  	35,803602  	37,851663  	41,156558  	51,317353  	49,291183  	53,030589  	70,142690  	22,638745  	20,458602  	21,913846  	74,843979  	-0,027443  	-0,013906  	2181,325497  	16229,443830  	-0,015674  	-0,049994  	0,478896  	0,242660  	-4,031637  	19110,721808  	3605,552474  	0,522941  	-0,047947  
219,549000  	13,522673  	51,013456  	1256,818530  	357,439972  	79,844849  	75,876170  	0,004126  	0,012769  	0,003964  	0,004074  	0,004476  	0,000000  	-0,000000  	24,058861  	19,516101  	21,417112  	26,901664  	38,290157  	35,799562  	37,847549  	41,151873  	51,314517  	49,294440  	53,025180  	70,135166  	22,639741  	20,466686  	21,914814  	74,844514  	0,066373  	0,033632  	-5276,517691  	-16233,563148  	-0,015674  	-0,049998  	0,402971  	0,204188  	-3,398471  	18885,850148  	3631,600847  	0,526719  	-0,047949  
220,547000  	13,515814  	51,013085  	1256,818530  	956,927186  	79,848723  	75,880039  	0,004125  	0,012826  	0,003970  	0,004050  	0,004503  	0,000001  	-0,000000  	24,055501  	19,518198  	21,414849  	26,904478  	38,294053  	35,804879  	37,852200  	41,154650  	51,317904  	49,305220  	53,024557  	70,135102  	22,636291  	20,470714  	21,915951  	74,847851  	0,047478  	0,024057  	-3775,036485  	-4419,945691  	-0,012268  	-0,049991  	0,424721  	0,215209  	-3,581910  	19009,482020  	3613,771587  	0,524133  	-0,047944  
221,548000  	13,510026  	51,012249  	1256,818530  	57,696365  	79,848379  	75,876077  	0,004125  	0,012878  	0,003966  	0,004046  	0,004517  	0,000000  	-0,000000  	24,061066  	19,518742  	21,412911  	26,912487  	38,293940  	35,805953  	37,852306  	41,155928  	51,318830  	49,307628  	53,030095  	70,140328  	22,638571  	20,473981  	21,916595  	74,851061  	0,044030  	0,022311  	-3501,410332  	-24492,168781  	-0,018199  	-0,049997  	0,435998  	0,220924  	-3,680366  	19120,016943  	3615,932281  	0,524447  	-0,047949  
222,547000  	13,508311  	51,012806  	1256,818530  	1256,670793  	79,844380  	75,879010  	0,004123  	0,012811  	0,003968  	0,003972  	0,004529  	-0,000000  	-0,000000  	24,067282  	19,521645  	21,419104  	26,911465  	38,293147  	35,810019  	37,851551  	41,158846  	51,326271  	49,305108  	53,036377  	70,143024  	22,642244  	20,488776  	21,922490  	74,860093  	-0,015784  	-0,007998  	1255,277709  	-1,993625  	-0,011069  	-0,050002  	0,445011  	0,225490  	-3,749889  	18977,094429  	3585,287136  	0,520002  	-0,047953  
223,549000  	13,509597  	51,012249  	1256,818530  	1256,670793  	79,843505  	75,877106  	0,004125  	0,012732  	0,003968  	0,004031  	0,004504  	-0,000001  	-0,000000  	24,069834  	19,525227  	21,427616  	26,911840  	38,295477  	35,816022  	37,856704  	41,164397  	51,330598  	49,305503  	53,037961  	70,142217  	22,643351  	20,499723  	21,921943  	74,864128  	0,031614  	0,016019  	-2514,052474  	-1,993869  	-0,011070  	-0,050009  	0,425607  	0,215658  	-3,587312  	18806,394749  	3627,512474  	0,526126  	-0,047959  
224,549000  	13,510700  	51,011939  	57,725912  	1256,670793  	79,846942  	75,875234  	0,004123  	0,012848  	0,003966  	0,003992  	0,004516  	-0,000001  	-0,000000  	24,071743  	19,521340  	21,427067  	26,916267  	38,290800  	35,809928  	37,857805  	41,161422  	51,319528  	49,306051  	53,033649  	70,139777  	22,646120  	20,495679  	21,912871  	74,859146  	0,000254  	0,000129  	-20,213983  	24494,292998  	-0,018203  	-0,050007  	0,434585  	0,220208  	-3,667888  	19055,150499  	3586,212140  	0,520136  	-0,047958  
225,547000  	13,509168  	51,012837  	57,725912  	57,696365  	79,852753  	75,868432  	0,004126  	0,012703  	0,003968  	0,003996  	0,004471  	0,000000  	-0,000000  	24,071705  	19,519995  	21,421030  	26,907773  	38,290843  	35,803644  	37,858998  	41,156639  	51,312103  	49,302436  	53,027576  	70,138926  	22,638085  	20,491715  	21,912353  	74,856014  	0,003353  	0,001699  	-266,611984  	-1,524892  	-0,051175  	-0,049995  	0,399680  	0,202521  	-3,383999  	18742,741575  	3643,738867  	0,528480  	-0,047947  
226,547000  	13,504391  	51,012156  	1256,818530  	1256,670793  	79,856814  	75,871740  	0,004123  	0,012834  	0,003966  	0,004050  	0,004437  	0,000000  	-0,000000  	24,073501  	19,527211  	21,424918  	26,908547  	38,297440  	35,804835  	37,856030  	41,158202  	51,317478  	49,298715  	53,031289  	70,142042  	22,644558  	20,491085  	21,920458  	74,861420  	0,046812  	0,023720  	-3723,145260  	-1,993433  	-0,011068  	-0,049996  	0,372031  	0,188511  	-3,150500  	19025,275048  	3567,041271  	0,517356  	-0,047948  
227,551000  	13,500717  	51,011877  	1256,818530  	1256,670793  	79,858532  	75,869774  	0,004127  	0,012876  	0,003969  	0,003959  	0,004466  	0,000002  	-0,000000  	24,068199  	19,524438  	21,415235  	26,906123  	38,297466  	35,805656  	37,854242  	41,157628  	51,319082  	49,294803  	53,027078  	70,147124  	22,639664  	20,482078  	21,915505  	74,861954  	-0,026188  	-0,013270  	2083,047174  	-1,992478  	-0,011062  	-0,049970  	0,395027  	0,200163  	-3,348325  	19117,467307  	3665,515279  	0,531638  	-0,047925  
228,547000  	13,498512  	51,011505  	1256,818530  	1256,670793  	79,857408  	75,876264  	0,004118  	0,012882  	0,003967  	0,004081  	0,004480  	0,000000  	-0,000000  	24,069093  	19,521998  	21,417906  	26,907732  	38,293317  	35,803526  	37,849874  	41,156162  	51,314488  	49,305159  	53,034852  	70,136585  	22,637989  	20,474008  	21,914106  	74,862159  	0,071951  	0,036458  	-5723,377389  	-1,993520  	-0,011068  	-0,049999  	0,406576  	0,206015  	-3,439643  	19130,144742  	3476,814621  	0,504269  	-0,047950  
229,550000  	13,495664  	51,011134  	-242,047242  	1256,670793  	79,857970  	75,882660  	0,004129  	0,012830  	0,003967  	0,004093  	0,004535  	0,000001  	-0,000000  	24,071057  	19,532332  	21,423137  	26,920092  	38,289345  	35,804409  	37,853846  	41,160744  	51,325168  	49,309125  	53,037800  	70,132754  	22,643815  	20,468683  	21,921527  	74,866402  	0,082310  	0,041707  	-6547,805086  	35503,561959  	-0,021693  	-0,049991  	0,450064  	0,228051  	-3,801981  	19018,032922  	3701,237350  	0,536819  	-0,047944  
230,547000  	13,492418  	51,010886  	357,499067  	1256,670793  	79,860407  	75,883222  	0,004117  	0,012845  	0,003968  	0,003932  	0,004570  	0,000002  	-0,000000  	24,066815  	19,526701  	21,434141  	26,915016  	38,298210  	35,808506  	37,858373  	41,158388  	51,314280  	49,299631  	53,033876  	70,138955  	22,622295  	20,468614  	21,911097  	74,859318  	-0,048637  	-0,024645  	3869,430125  	16225,456100  	-0,015670  	-0,049981  	0,477714  	0,242061  	-4,037461  	19050,634870  	3457,749669  	0,501504  	-0,047935  
231,547000  	13,491683  	51,010607  	357,499067  	1256,670793  	79,855689  	75,889057  	0,004126  	0,012776  	0,003966  	0,004068  	0,004494  	0,000001  	-0,000000  	24,074514  	19,530093  	21,428399  	26,922565  	38,296357  	35,813574  	37,859547  	41,170529  	51,332308  	49,305517  	53,037649  	70,141844  	22,629495  	20,455485  	21,918856  	74,866019  	0,061886  	0,031358  	-4923,561425  	16227,791686  	-0,015672  	-0,049989  	0,417631  	0,211617  	-3,520297  	18900,458910  	3638,753735  	0,527757  	-0,047942  
232,549000  	13,493949  	51,010546  	-242,047242  	1256,670793  	79,853877  	75,889743  	0,004118  	0,012801  	0,003968  	0,004002  	0,004555  	0,000000  	-0,000000  	24,066984  	19,530042  	21,425396  	26,903681  	38,297611  	35,812427  	37,862523  	41,159745  	51,320867  	49,302533  	53,031445  	70,139332  	22,615750  	20,457962  	21,916778  	74,865692  	0,008454  	0,004283  	-672,505812  	35507,868070  	-0,021696  	-0,049998  	0,465559  	0,235902  	-3,921824  	18954,585615  	3477,838479  	0,504418  	-0,047950  
233,547000  	13,497011  	51,010112  	957,045375  	1256,670793  	79,857251  	75,886873  	0,004125  	0,012798  	0,003968  	0,003962  	0,004545  	0,000000  	-0,000000  	24,066136  	19,537340  	21,440110  	26,922338  	38,299020  	35,807014  	37,860693  	41,163069  	51,337848  	49,307705  	53,039211  	70,135482  	22,617543  	20,477452  	21,924762  	74,865369  	-0,024423  	-0,012375  	1942,723686  	4416,462020  	-0,012270  	-0,049996  	0,457905  	0,232024  	-3,863421  	18949,299577  	3625,507124  	0,525835  	-0,047948  
234,551000  	13,496644  	51,009431  	357,499067  	1256,670793  	79,858563  	75,880882  	0,004117  	0,012805  	0,003965  	0,004014  	0,004525  	0,000001  	-0,000000  	24,085772  	19,537696  	21,425128  	26,917376  	38,302422  	35,807365  	37,861263  	41,167335  	51,326928  	49,306958  	53,037093  	70,152286  	22,594733  	20,500841  	21,917702  	74,853170  	0,018195  	0,009219  	-1447,291109  	16228,315855  	-0,015673  	-0,049991  	0,441849  	0,223888  	-3,734809  	18963,957861  	3443,613360  	0,499454  	-0,047943  
235,549000  	13,492418  	51,009524  	357,499067  	1256,670793  	79,862187  	75,885687  	0,004129  	0,012832  	0,003965  	0,003980  	0,004499  	0,000000  	-0,000000  	24,081306  	19,552449  	21,438468  	26,919829  	38,301660  	35,809112  	37,865514  	41,168619  	51,320311  	49,317718  	53,056104  	70,146108  	22,596442  	20,545858  	21,921957  	74,867579  	-0,009597  	-0,004863  	763,449924  	16229,251278  	-0,015674  	-0,049994  	0,421386  	0,213519  	-3,560781  	19022,032115  	3714,286250  	0,538712  	-0,047946  
236,547000  	13,486171  	51,009400  	957,045375  	57,696365  	79,861313  	75,884938  	0,004123  	0,012794  	0,003970  	0,004014  	0,004444  	-0,000001  	-0,000000  	24,080277  	19,540958  	21,429926  	26,925254  	38,306371  	35,809848  	37,870842  	41,170920  	51,339478  	49,304180  	53,033323  	70,151620  	22,595922  	20,577571  	21,931650  	74,865786  	0,018126  	0,009184  	-1442,220795  	-21310,014033  	-0,021698  	-0,050008  	0,377808  	0,191438  	-3,192442  	18940,808809  	3566,624667  	0,517295  	-0,047959  
237,548000  	13,481485  	51,009183  	1256,818530  	956,927186  	79,857814  	75,885406  	0,004121  	0,012879  	0,003966  	0,004081  	0,004589  	-0,000002  	-0,000000  	24,075339  	19,533006  	21,442929  	26,926911  	38,300857  	35,813019  	37,866651  	41,163647  	51,320310  	49,309797  	53,043265  	70,144756  	22,597294  	20,607983  	21,915787  	74,860061  	0,072437  	0,036705  	-5764,322327  	-4422,157358  	-0,012275  	-0,050019  	0,492896  	0,249754  	-4,160772  	19122,885637  	3544,015046  	0,514016  	-0,047968  
238,551000  	13,477015  	51,009555  	657,272221  	-242,047242  	79,857814  	75,890336  	0,004122  	0,012895  	0,003967  	0,004054  	0,004517  	0,000001  	-0,000000  	24,080754  	19,533122  	21,433187  	26,931584  	38,307668  	35,815051  	37,861204  	41,170695  	51,326006  	49,311617  	53,036024  	70,157079  	22,590843  	20,628382  	21,919195  	74,868173  	0,050165  	0,025419  	-3992,461054  	-32737,781319  	-0,035215  	-0,049989  	0,435737  	0,220791  	-3,673697  	19158,433391  	3565,516075  	0,517134  	-0,047942  
239,547000  	13,473340  	51,009740  	657,272221  	657,183579  	79,862312  	75,896108  	0,004121  	0,012803  	0,003968  	0,003979  	0,004569  	-0,000002  	-0,000000  	24,079340  	19,541715  	21,440457  	26,930861  	38,303508  	35,825379  	37,856991  	41,165836  	51,319642  	49,315025  	53,045713  	70,150779  	22,592104  	20,652624  	21,923177  	74,863352  	-0,010126  	-0,005131  	805,968602  	-1,811316  	-0,018207  	-0,050020  	0,476634  	0,241514  	-4,017219  	18959,539860  	3542,461605  	0,513791  	-0,047969  
240,549000  	13,466297  	51,009617  	1256,818530  	57,696365  	79,862875  	75,887684  	0,004123  	0,012800  	0,003967  	0,004069  	0,004496  	0,000000  	-0,000000  	24,059704  	19,538131  	21,420651  	26,920474  	38,282478  	35,810853  	37,857952  	41,160530  	51,321664  	49,311125  	53,025886  	70,140568  	22,573754  	20,667068  	21,922247  	74,865711  	0,062662  	0,031752  	-4988,559301  	-24491,770592  	-0,018199  	-0,049996  	0,419003  	0,212312  	-3,539479  	18952,661361  	3581,495329  	0,519452  	-0,047948  
241,547000  	13,458335  	51,009895  	957,045375  	956,927186  	79,863531  	75,886436  	0,004118  	0,012787  	0,003967  	0,004069  	0,004518  	0,000002  	-0,000000  	24,068339  	19,543454  	21,431981  	26,922482  	38,296849  	35,822462  	37,869896  	41,166557  	51,320970  	49,314278  	53,038331  	70,153991  	22,585693  	20,690344  	21,919686  	74,867037  	0,062446  	0,031642  	-4972,459964  	-1,916375  	-0,013760  	-0,049979  	0,436535  	0,221196  	-3,689350  	18923,855569  	3475,006981  	0,504007  	-0,047934  
242,548000  	13,457416  	51,008904  	-242,047242  	357,439972  	79,864968  	75,886685  	0,004128  	0,012736  	0,003965  	0,004048  	0,004545  	0,000001  	-0,000000  	24,075792  	19,537921  	21,437071  	26,925723  	38,300329  	35,824190  	37,862924  	41,173355  	51,328582  	49,320654  	53,043178  	70,145860  	22,602428  	20,710052  	21,918001  	74,866857  	0,045218  	0,022912  	-3600,554590  	30933,135730  	-0,051166  	-0,049983  	0,457688  	0,231914  	-3,869278  	18815,660171  	3676,354057  	0,533210  	-0,047937  
243,547000  	13,456314  	51,008347  	-242,047242  	1256,670793  	79,864843  	75,889837  	0,004120  	0,012927  	0,003965  	0,004064  	0,004459  	-0,000001  	-0,000000  	24,074254  	19,540826  	21,428314  	26,916845  	38,302989  	35,814585  	37,858214  	41,166755  	51,328789  	49,312443  	53,038244  	70,149285  	22,596968  	20,731682  	21,920578  	74,861840  	0,058116  	0,029448  	-4627,667145  	35515,721003  	-0,021701  	-0,050011  	0,389646  	0,197436  	-3,291338  	19226,936108  	3516,836898  	0,510074  	-0,047961  
244,549000  	13,456620  	51,006737  	-242,047242  	1256,670793  	79,864843  	75,889026  	0,004128  	0,012865  	0,003965  	0,004121  	0,004538  	0,000000  	-0,000000  	24,070483  	19,538598  	21,427064  	26,920021  	38,298187  	35,811440  	37,857992  	41,168509  	51,329158  	49,309995  	53,042653  	70,148795  	22,600530  	20,751994  	21,925918  	74,859918  	0,104599  	0,053001  	-8328,638518  	35508,122901  	-0,021696  	-0,049999  	0,452504  	0,229287  	-3,823080  	19093,226665  	3682,836141  	0,534150  	-0,047950  
245,548000  	13,457876  	51,007108  	1256,818530  	956,927186  	79,865655  	75,891210  	0,004120  	0,012863  	0,003966  	0,004029  	0,004567  	-0,000001  	-0,000000  	24,073691  	19,536090  	21,427542  	26,915911  	38,296963  	35,813956  	37,861460  	41,163116  	51,328515  	49,303715  	53,039225  	70,141602  	22,597429  	20,763668  	21,922343  	74,859897  	0,030282  	0,015344  	-2411,104158  	-4421,324422  	-0,012272  	-0,050009  	0,475149  	0,240761  	-4,013017  	19087,702218  	3513,532306  	0,509595  	-0,047959  
246,550000  	13,457753  	51,006799  	1256,818530  	357,439972  	79,867842  	75,896514  	0,004125  	0,012932  	0,003966  	0,003986  	0,004518  	0,000000  	-0,000000  	24,076838  	19,540787  	21,430470  	26,918843  	38,297239  	35,816191  	37,861029  	41,160356  	51,322799  	49,311973  	53,041883  	70,139587  	22,607128  	20,775791  	21,922723  	74,861839  	-0,004336  	-0,002197  	345,214312  	-16233,256431  	-0,015674  	-0,049997  	0,436421  	0,221138  	-3,683042  	19237,131114  	3611,335510  	0,523780  	-0,047949  
247,548000  	13,460968  	51,005591  	1256,818530  	357,439972  	79,874028  	75,896358  	0,004120  	0,012727  	0,003968  	0,004097  	0,004463  	-0,000000  	-0,000000  	24,068496  	19,537688  	21,418467  	26,909911  	38,289568  	35,808187  	37,850114  	41,160948  	51,313799  	49,307793  	53,035724  	70,138902  	22,611432  	20,773952  	21,915677  	74,861243  	0,084973  	0,043056  	-6764,921682  	-16234,307353  	-0,015675  	-0,050000  	0,392916  	0,199093  	-3,321190  	18795,461169  	3521,701991  	0,510780  	-0,047952  
248,547000  	13,464092  	51,005839  	57,725912  	956,927186  	79,871404  	75,900227  	0,004127  	0,012876  	0,003964  	0,004099  	0,004495  	0,000000  	-0,000000  	24,069693  	19,541225  	21,420378  	26,909602  	38,299979  	35,808714  	37,850858  	41,162498  	51,317177  	49,301312  	53,031194  	70,143640  	22,617324  	20,777409  	21,917798  	74,859429  	0,087228  	0,044199  	-6943,898711  	21302,396644  	-0,021694  	-0,049995  	0,418675  	0,212146  	-3,533146  	19116,042510  	3670,966443  	0,532429  	-0,047947  
249,547000  	13,465715  	51,005622  	957,045375  	956,927186  	79,864468  	75,896795  	0,004116  	0,012877  	0,003969  	0,004028  	0,004521  	-0,000000  	-0,000000  	24,075885  	19,543576  	21,426429  	26,922677  	38,308924  	35,817093  	37,859879  	41,165104  	51,322415  	49,310414  	53,038408  	70,145929  	22,631014  	20,785759  	21,926954  	74,860634  	0,028923  	0,014655  	-2302,327397  	-1,917252  	-0,013767  	-0,050005  	0,439174  	0,222533  	-3,702866  	19117,709961  	3430,409116  	0,497539  	-0,047956  
250,549000  	13,463633  	51,005870  	-242,047242  	357,439972  	79,858845  	75,894174  	0,004125  	0,012843  	0,003966  	0,004034  	0,004504  	0,000000  	-0,000000  	24,075887  	19,536625  	21,420583  	26,920176  	38,302185  	35,817954  	37,861850  	41,168780  	51,318666  	49,310652  	53,042923  	70,145277  	22,634371  	20,795808  	21,924152  	74,863257  	0,034439  	0,017451  	-2741,629814  	30939,564135  	-0,051177  	-0,049994  	0,425451  	0,215579  	-3,584445  	19046,216161  	3617,040873  	0,524607  	-0,047947  
251,547000  	13,460417  	51,005777  	657,272221  	1256,670793  	79,863031  	75,898137  	0,004118  	0,012861  	0,003966  	0,003994  	0,004595  	0,000001  	-0,000000  	24,080001  	19,541423  	21,431026  	26,917857  	38,306151  	35,816105  	37,863642  	41,169600  	51,321049  	49,309218  	53,047790  	70,150730  	22,640835  	20,825064  	21,926151  	74,865648  	0,001457  	0,000738  	-115,992012  	9720,912318  	-0,013763  	-0,049990  	0,497497  	0,252085  	-4,191674  	19084,051088  	3464,577746  	0,502495  	-0,047943  
252,547000  	13,459376  	51,005839  	1256,818530  	57,696365  	79,866717  	75,898948  	0,004124  	0,012872  	0,003968  	0,004084  	0,004464  	0,000001  	-0,000000  	24,076544  	19,538471  	21,426024  	26,911186  	38,300061  	35,810421  	37,860229  	41,159889  	51,322092  	49,311274  	53,045556  	70,147722  	22,642389  	20,840030  	21,923043  	74,863644  	0,075035  	0,038021  	-5974,069948  	-24489,826282  	-0,018197  	-0,049992  	0,393880  	0,199582  	-3,321055  	19107,679082  	3603,335291  	0,522620  	-0,047944  
253,550000  	13,462714  	51,006737  	957,045375  	956,927186  	79,867124  	75,901974  	0,004125  	0,012868  	0,003970  	0,003960  	0,004550  	-0,000001  	-0,000000  	24,072450  	19,529884  	21,417911  	26,906852  	38,293841  	35,811797  	37,856671  	41,159020  	51,318371  	49,310294  	53,042820  	70,143419  	22,641875  	20,848488  	21,916561  	74,857141  	-0,025917  	-0,013132  	2063,286727  	-1,917587  	-0,013769  	-0,050015  	0,461675  	0,233934  	-3,890107  	19098,602548  	3626,594532  	0,525993  	-0,047964  
254,548000  	13,462836  	51,007666  	357,499067  	-242,047242  	79,869310  	75,900477  	0,004123  	0,012933  	0,003966  	0,004097  	0,004463  	0,000000  	-0,000000  	24,058644  	19,523532  	21,410542  	26,907145  	38,283798  	35,801101  	37,847854  	41,149820  	51,311136  	49,304728  	53,036427  	70,132393  	22,647131  	20,851363  	21,910885  	74,854925  	0,085154  	0,043148  	-6779,382672  	-30940,172883  	-0,051173  	-0,049995  	0,393090  	0,199182  	-3,315287  	19238,451916  	3571,341477  	0,517979  	-0,047947  
255,548000  	13,465041  	51,007108  	1256,818530  	657,183579  	79,865499  	75,899759  	0,004126  	0,012662  	0,003966  	0,004027  	0,004559  	0,000000  	-0,000000  	24,065958  	19,530736  	21,418589  	26,915705  	38,288968  	35,806581  	37,859934  	41,155778  	51,314964  	49,303197  	53,049549  	70,139594  	22,658645  	20,871562  	21,910832  	74,861694  	0,028904  	0,014646  	-2301,000723  	-9725,619391  	-0,013764  	-0,049997  	0,469113  	0,237703  	-3,953366  	18655,837476  	3639,036179  	0,527798  	-0,047948  
256,547000  	13,469451  	51,007790  	57,725912  	1256,670793  	79,862000  	75,894642  	0,004119  	0,012885  	0,003966  	0,004019  	0,004544  	-0,000000  	-0,000000  	24,056074  	19,527636  	21,423928  	26,913245  	38,286534  	35,810323  	37,863303  	41,166257  	51,322043  	49,315488  	53,042932  	70,134846  	22,670161  	20,880356  	21,920469  	74,867365  	0,021841  	0,011067  	-1738,535433  	24492,513872  	-0,018202  	-0,050003  	0,456795  	0,231461  	-3,851125  	19136,266273  	3479,985052  	0,504729  	-0,047954  
257,549000  	13,475667  	51,010019  	-242,047242  	57,696365  	79,862937  	75,894112  	0,004128  	0,012836  	0,003965  	0,004061  	0,004454  	0,000001  	-0,000000  	24,054479  	19,509041  	21,408451  	26,899502  	38,276244  	35,796717  	37,851828  	41,142495  	51,309450  	49,295833  	53,026014  	70,129397  	22,647365  	20,876804  	21,909870  	74,848520  	0,055815  	0,028282  	-4442,335542  	27695,155469  	-0,093554  	-0,049992  	0,385581  	0,195377  	-3,251946  	19030,914809  	3689,162880  	0,535068  	-0,047944  
258,548000  	13,483997  	51,008966  	357,499067  	1256,670793  	79,861938  	75,893363  	0,004120  	0,012794  	0,003967  	0,003985  	0,004491  	-0,000000  	-0,000000  	24,059417  	19,513443  	21,421322  	26,904702  	38,279731  	35,805363  	37,841862  	41,151299  	51,310484  	49,301113  	53,038846  	70,122379  	22,670628  	20,883990  	21,911055  	74,851814  	-0,005675  	-0,002876  	451,559757  	16231,968402  	-0,015677  	-0,050003  	0,415477  	0,210525  	-3,503857  	18940,235070  	3519,739007  	0,510495  	-0,047954  
259,551000  	13,489509  	51,008873  	1256,818530  	1256,670793  	79,863250  	75,894767  	0,004127  	0,012772  	0,003964  	0,004069  	0,004484  	0,000002  	-0,000000  	24,057470  	19,526071  	21,419125  	26,903722  	38,302973  	35,809785  	37,858127  	41,166530  	51,317461  	49,295997  	53,036635  	70,138894  	22,669636  	20,891951  	21,920258  	74,865281  	0,062908  	0,031876  	-5004,892513  	-1,992862  	-0,011064  	-0,049980  	0,409755  	0,207626  	-3,455527  	18892,278003  	3658,842545  	0,530670  	-0,047935  
260,547000  	13,492448  	51,008626  	1256,818530  	57,696365  	79,863874  	75,890336  	0,004119  	0,012834  	0,003966  	0,004059  	0,004490  	-0,000000  	-0,000000  	24,066778  	19,532301  	21,422334  	26,910452  	38,297166  	35,820087  	37,860971  	41,155501  	51,320372  	49,317554  	53,058390  	70,140098  	22,686855  	20,904308  	21,931938  	74,882380  	0,054551  	0,027642  	-4339,677073  	-24494,087979  	-0,018200  	-0,050002  	0,414437  	0,209998  	-3,499455  	19024,971554  	3500,328062  	0,507680  	-0,047953  
261,549000  	13,495541  	51,007882  	1256,818530  	-242,047242  	79,864812  	75,889587  	0,004128  	0,012872  	0,003966  	0,004017  	0,004513  	-0,000000  	-0,000000  	24,061629  	19,524118  	21,406911  	26,911683  	38,288360  	35,817963  	37,862953  	41,159443  	51,332176  	49,301375  	53,051193  	70,142347  	22,674385  	20,911496  	21,924779  	74,866504  	0,020154  	0,010212  	-1603,109502  	-35511,838287  	-0,021696  	-0,050004  	0,432906  	0,219357  	-3,656957  	19107,346582  	3693,964424  	0,535764  	-0,047954  
262,547000  	13,493888  	51,008626  	1256,818530  	357,439972  	79,866311  	75,888589  	0,004118  	0,012828  	0,003966  	0,004078  	0,004503  	0,000001  	-0,000000  	24,060986  	19,517688  	21,412631  	26,911186  	38,288087  	35,803079  	37,842627  	41,156117  	51,318485  	49,311943  	53,044479  	70,139113  	22,664611  	20,903262  	21,909003  	74,862413  	0,069711  	0,035323  	-5545,483430  	-16228,813787  	-0,015670  	-0,049981  	0,424304  	0,214998  	-3,586550  	19012,740517  	3465,121450  	0,502573  	-0,047935  
263,549000  	13,490580  	51,008254  	1256,818530  	1256,670793  	79,863999  	75,890648  	0,004128  	0,012900  	0,003967  	0,004014  	0,004524  	-0,000002  	-0,000000  	24,051200  	19,521055  	21,414189  	26,906124  	38,286650  	35,799319  	37,857726  	41,155811  	51,315881  	49,296844  	53,038479  	70,128558  	22,671306  	20,901726  	21,920772  	74,864588  	0,018224  	0,009234  	-1449,847975  	-1,994400  	-0,011073  	-0,050024  	0,441408  	0,223665  	-3,727023  	19168,699142  	3675,859780  	0,533138  	-0,047972  
264,547000  	13,489784  	51,007263  	1256,818530  	1256,670793  	79,858501  	75,889774  	0,004122  	0,012842  	0,003967  	0,003961  	0,004495  	0,000001  	-0,000000  	24,066635  	19,525687  	21,421024  	26,906901  	38,298956  	35,808521  	37,857339  	41,161995  	51,314315  	49,302448  	53,040122  	70,146128  	22,669442  	20,926231  	21,917945  	74,874795  	-0,024693  	-0,012512  	1964,489746  	-1,993064  	-0,011066  	-0,049986  	0,418410  	0,212011  	-3,528728  	19043,491079  	3559,973117  	0,516330  	-0,047940  
265,549000  	13,490489  	51,007356  	-242,047242  	-242,047242  	79,862469  	75,891771  	0,004125  	0,012720  	0,003964  	0,004017  	0,004471  	-0,000001  	-0,000000  	24,053362  	19,516560  	21,419775  	26,902011  	38,274407  	35,795064  	37,853670  	41,147162  	51,316751  	49,303180  	53,039912  	70,137432  	22,673442  	20,937822  	21,908542  	74,872653  	0,020461  	0,010368  	-1627,736759  	-0,000000  	-0,544508  	-0,050008  	0,399298  	0,202327  	-3,369217  	18779,960317  	3616,836101  	0,524578  	-0,047958  
266,548000  	13,494163  	51,007294  	-242,047242  	357,439972  	79,867217  	75,891709  	0,004122  	0,012843  	0,003968  	0,003997  	0,004520  	-0,000001  	-0,000000  	24,057845  	19,524213  	21,414808  	26,901858  	38,293355  	35,810567  	37,858534  	41,162972  	51,324358  	49,305197  	53,040250  	70,143784  	22,668796  	20,959281  	21,922286  	74,874206  	0,004183  	0,002119  	-332,722052  	30947,612669  	-0,051190  	-0,050009  	0,437719  	0,221796  	-3,697884  	19046,460230  	3555,242184  	0,515644  	-0,047959  
267,549000  	13,500502  	51,006086  	657,272221  	357,439972  	79,869779  	75,896639  	0,004124  	0,012854  	0,003968  	0,004009  	0,004468  	0,000000  	-0,000000  	24,059334  	19,514240  	21,408076  	26,896845  	38,279639  	35,798642  	37,846384  	41,155961  	51,319142  	49,301456  	53,044484  	70,129082  	22,664108  	20,978521  	21,909286  	74,869506  	0,014065  	0,007127  	-1118,600287  	-7102,762286  	-0,021693  	-0,049994  	0,397097  	0,201212  	-3,352711  	19069,362384  	3593,732204  	0,521227  	-0,047946  
268,548000  	13,504973  	51,006210  	57,725912  	956,927186  	79,874340  	75,899010  	0,004124  	0,012837  	0,003966  	0,004028  	0,004504  	-0,000000  	-0,000000  	24,055154  	19,518443  	21,403928  	26,895647  	38,283538  	35,805029  	37,855986  	41,161050  	51,318022  	49,303802  	53,044854  	70,141859  	22,663766  	21,003735  	21,917659  	74,874170  	0,028945  	0,014667  	-2301,698059  	21306,435766  	-0,021698  	-0,050005  	0,425532  	0,215620  	-3,594767  	19032,888583  	3595,292706  	0,521453  	-0,047956  
269,550000  	13,504636  	51,005746  	1256,818530  	956,927186  	79,869029  	75,898105  	0,004128  	0,012851  	0,003966  	0,003998  	0,004334  	0,000003  	-0,000000  	24,056022  	19,522318  	21,407012  	26,910927  	38,283831  	35,804974  	37,853415  	41,158980  	51,317753  	49,304698  	53,047539  	70,139594  	22,670470  	21,021216  	21,921869  	74,883765  	0,004647  	0,002355  	-369,544534  	-4417,842794  	-0,012263  	-0,049965  	0,290961  	0,147432  	-2,455229  	19062,901986  	3680,025825  	0,533743  	-0,047921  
270,548000  	13,506719  	51,006055  	1256,818530  	357,439972  	79,866530  	75,889182  	0,004124  	0,012807  	0,003970  	0,003998  	0,004481  	-0,000001  	-0,000000  	24,057632  	19,528310  	21,407093  	26,905777  	38,287774  	35,802694  	37,853327  	41,161458  	51,321873  	49,303260  	53,043958  	70,143413  	22,665094  	21,033091  	21,917822  	74,881854  	0,004868  	0,002467  	-387,082454  	-16236,441297  	-0,015677  	-0,050008  	0,406882  	0,206170  	-3,438958  	18967,537539  	3593,280294  	0,521161  	-0,047958  
271,549000  	13,508372  	51,005498  	1256,818530  	1256,670793  	79,870154  	75,891428  	0,004121  	0,012700  	0,003968  	0,003993  	0,004484  	0,000001  	-0,000000  	24,050382  	19,518946  	21,402835  	26,902010  	38,283528  	35,797113  	37,846335  	41,149397  	51,314856  	49,304714  	53,042278  	70,145934  	22,664868  	21,044003  	21,920344  	74,875728  	0,000776  	0,000393  	-61,679132  	-1,993160  	-0,011066  	-0,049989  	0,409334  	0,207412  	-3,460880  	18736,076725  	3525,832731  	0,511379  	-0,047942  
272,547000  	13,509965  	51,006055  	1256,818530  	1256,670793  	79,874465  	75,888121  	0,004125  	0,012779  	0,003966  	0,004061  	0,004462  	-0,000000  	-0,000000  	24,051532  	19,517411  	21,405605  	26,908358  	38,288533  	35,796331  	37,847907  	41,152698  	51,313820  	49,306261  	53,044243  	70,148370  	22,668585  	21,045708  	21,921862  	74,880705  	0,056459  	0,028608  	-4489,055957  	-1,993562  	-0,011068  	-0,050000  	0,392135  	0,198698  	-3,321814  	18908,464371  	3629,976796  	0,526484  	-0,047951  
273,548000  	13,510638  	51,006055  	957,045375  	-242,047242  	79,872591  	75,889462  	0,004119  	0,012919  	0,003966  	0,004027  	0,004449  	0,000000  	-0,000000  	24,057825  	19,519781  	21,410442  	26,908234  	38,290196  	35,802657  	37,845724  	41,162275  	51,311895  	49,301786  	53,045652  	70,146717  	22,672629  	21,046285  	21,916841  	74,885219  	0,028620  	0,014502  	-2275,526288  	-34193,651361  	-0,026851  	-0,050000  	0,381722  	0,193422  	-3,230998  	19209,071678  	3494,220216  	0,506794  	-0,047951  
274,547000  	13,508556  	51,005003  	357,499067  	357,439972  	79,869654  	75,895828  	0,004126  	0,012822  	0,003966  	0,004092  	0,004431  	-0,000000  	-0,000000  	24,055637  	19,515358  	21,413734  	26,904768  	38,282831  	35,802246  	37,846298  	41,163654  	51,316511  	49,303590  	53,042987  	70,141061  	22,682876  	21,051102  	21,913550  	74,884183  	0,080874  	0,040980  	-6430,340794  	-1,685418  	-0,026855  	-0,050006  	0,367739  	0,186336  	-3,105378  	19000,808023  	3645,377040  	0,528717  	-0,047956  
275,550000  	13,506719  	51,005003  	1256,818530  	1256,670793  	79,872403  	75,893519  	0,004120  	0,012863  	0,003966  	0,004079  	0,004432  	-0,000000  	-0,000000  	24,051385  	19,513750  	21,413727  	26,903812  	38,278841  	35,797529  	37,850752  	41,159111  	51,320797  	49,306482  	53,039722  	70,139186  	22,689566  	21,048145  	21,909245  	74,882623  	0,070485  	0,035715  	-5604,558744  	-1,993717  	-0,011069  	-0,050004  	0,368109  	0,186523  	-3,112452  	19088,038255  	3509,175612  	0,508963  	-0,047955  
276,549000  	13,507576  	51,004817  	57,725912  	57,696365  	79,873778  	75,896389  	0,004127  	0,012831  	0,003967  	0,003938  	0,004504  	0,000003  	-0,000000  	24,046863  	19,518333  	21,412087  	26,907946  	38,277008  	35,797970  	37,848057  	41,152392  	51,311875  	49,298613  	53,042528  	70,136870  	22,688191  	21,038936  	21,907555  	74,881525  	-0,043825  	-0,022206  	3484,583439  	-1,524106  	-0,051149  	-0,049966  	0,425711  	0,215711  	-3,598142  	19019,757676  	3656,491201  	0,530329  	-0,047922  
277,547000  	13,513394  	51,004879  	957,045375  	956,927186  	79,874621  	75,898854  	0,004120  	0,012863  	0,003966  	0,004083  	0,004408  	-0,000000  	-0,000000  	24,041759  	19,525223  	21,414760  	26,911020  	38,283303  	35,800895  	37,848050  	41,152290  	51,311151  	49,296994  	53,041721  	70,137331  	22,684174  	21,036135  	21,915719  	74,880240  	0,073988  	0,037490  	-5882,000923  	-1,917221  	-0,013766  	-0,050004  	0,349225  	0,176955  	-2,950473  	19088,085654  	3501,973296  	0,507918  	-0,047955  
278,667000  	13,519213  	51,004383  	357,499067  	-242,047242  	79,875371  	75,901912  	0,004129  	0,012894  	0,003966  	0,003999  	0,004507  	-0,000001  	-0,000000  	24,046475  	19,522616  	21,413279  	26,902032  	38,286948  	35,802929  	37,844465  	41,151345  	51,309420  	49,305738  	53,038445  	70,143387  	22,684510  	21,037064  	21,920200  	74,879277  	0,005730  	0,002903  	-455,462625  	-30949,180025  	-0,051188  	-0,050011  	0,427477  	0,216606  	-3,609498  	19154,693830  	3709,597684  	0,538032  	-0,047961  
279,550000  	13,523531  	51,003733  	357,499067  	657,183579  	79,873028  	75,898230  	0,004119  	0,012909  	0,003965  	0,004034  	0,004454  	0,000001  	-0,000000  	24,051954  	19,517390  	21,408982  	26,899138  	38,277059  	35,800950  	37,851897  	41,159742  	51,306459  	49,308491  	53,046361  	70,143535  	22,697006  	21,043162  	21,921418  	74,883811  	0,034336  	0,017398  	-2728,865461  	7098,679681  	-0,021691  	-0,049988  	0,385527  	0,195349  	-3,256381  	19188,411421  	3494,149605  	0,506784  	-0,047941  
280,549000  	13,529410  	51,003176  	-242,047242  	1256,670793  	79,869092  	75,902661  	0,004124  	0,012728  	0,003969  	0,004046  	0,004551  	-0,000001  	-0,000000  	24,048978  	19,522078  	21,409675  	26,900988  	38,282116  	35,801404  	37,851147  	41,153714  	51,308379  	49,302014  	53,041982  	70,141870  	22,695731  	21,067605  	21,921085  	74,880321  	0,043898  	0,022243  	-3488,189335  	35519,364036  	-0,021703  	-0,050016  	0,462996  	0,234604  	-3,902502  	18796,825833  	3606,618699  	0,523096  	-0,047965  
281,547000  	13,526501  	51,004105  	957,045375  	956,927186  	79,867030  	75,901787  	0,004122  	0,012854  	0,003964  	0,003991  	0,004470  	0,000000  	-0,000000  	24,051286  	19,523747  	21,415557  	26,908037  	38,290311  	35,800610  	37,855933  	41,149846  	51,318052  	49,308954  	53,052493  	70,143147  	22,710205  	21,095470  	21,927086  	74,891111  	-0,000695  	-0,000352  	55,194884  	-1,916955  	-0,013765  	-0,049996  	0,398562  	0,201954  	-3,358394  	19069,531464  	3560,290866  	0,516377  	-0,047948  
282,547000  	13,522459  	51,003547  	357,499067  	357,439972  	79,867342  	75,900414  	0,004124  	0,012873  	0,003965  	0,004072  	0,004450  	0,000001  	-0,000001  	24,058062  	19,526841  	21,411218  	26,897457  	38,286951  	35,811512  	37,853251  	41,162201  	51,312489  	49,300999  	53,037153  	70,142013  	22,709294  	21,118258  	21,920733  	74,885395  	0,064658  	0,032763  	-5138,832268  	-1,684730  	-0,026844  	-0,049983  	0,382923  	0,194030  	-3,227988  	19110,150899  	3607,960307  	0,523290  	-0,047937  
283,551000  	13,520713  	51,004012  	357,499067  	1256,670793  	79,866811  	75,904533  	0,004122  	0,012859  	0,003967  	0,004073  	0,004568  	0,000002  	-0,000000  	24,059040  	19,523150  	21,412591  	26,896254  	38,283163  	35,799766  	37,844261  	41,150951  	51,308334  	49,300821  	53,036151  	70,137043  	22,710401  	21,135171  	21,914209  	74,876238  	0,065707  	0,033294  	-5222,504962  	16224,271073  	-0,015669  	-0,049977  	0,476040  	0,241213  	-4,008242  	19079,418024  	3548,053991  	0,514602  	-0,047931  
284,547000  	13,518325  	51,004755  	957,045375  	57,696365  	79,870310  	75,910212  	0,004122  	0,012843  	0,003969  	0,003994  	0,004524  	-0,000001  	-0,000000  	24,048586  	19,520517  	21,406774  	26,892529  	38,281282  	35,808131  	37,841343  	41,160691  	51,312678  	49,295561  	53,040449  	70,147348  	22,700741  	21,140180  	21,914515  	74,874457  	0,002095  	0,001062  	-166,556714  	-21309,778429  	-0,021698  	-0,050008  	0,440961  	0,223438  	-3,710847  	19044,917998  	3557,918339  	0,516032  	-0,047958  
285,550000  	13,516273  	51,004228  	957,045375  	57,696365  	79,871310  	75,900695  	0,004125  	0,012769  	0,003965  	0,004084  	0,004428  	0,000001  	-0,000000  	24,061430  	19,525281  	21,422152  	26,903501  	38,289824  	35,813948  	37,858508  	41,159876  	51,315288  	49,314983  	53,052409  	70,152275  	22,714935  	21,138415  	21,917442  	74,887196  	0,074994  	0,038000  	-5961,466198  	-21301,167192  	-0,021689  	-0,049985  	0,365585  	0,185245  	-3,084694  	18884,933297  	3611,286082  	0,523773  	-0,047939  
286,655000  	13,515538  	51,005095  	357,499067  	1256,670793  	79,867061  	75,900383  	0,004120  	0,012925  	0,003969  	0,003955  	0,004601  	-0,000001  	-0,000000  	24,053452  	19,516604  	21,412365  	26,891552  	38,277783  	35,802112  	37,852601  	41,139576  	51,312461  	49,296762  	53,033822  	70,149708  	22,696086  	21,124428  	21,908793  	74,874533  	-0,029625  	-0,015011  	2355,033491  	16234,210089  	-0,015679  	-0,050011  	0,502322  	0,254530  	-4,234232  	19223,031713  	3512,338981  	0,509422  	-0,047961  
287,645000  	13,517008  	51,005746  	1256,818530  	1256,670793  	79,866842  	75,897513  	0,004128  	0,012733  	0,003967  	0,004078  	0,004520  	-0,000001  	-0,000000  	24,064866  	19,517634  	21,424374  	26,912252  	38,274343  	35,809292  	37,857716  	41,155460  	51,315596  	49,305320  	53,050897  	70,144739  	22,705516  	21,123687  	21,928870  	74,881202  	0,069438  	0,035185  	-5519,913046  	-1,994016  	-0,011071  	-0,050013  	0,437988  	0,221932  	-3,694406  	18808,872933  	3687,644745  	0,534848  	-0,047962  
288,548000  	13,517865  	51,007170  	1256,818530  	1256,670793  	79,870091  	75,902193  	0,004122  	0,012885  	0,003967  	0,003962  	0,004438  	0,000001  	-0,000000  	24,065775  	19,528559  	21,423163  	26,909057  	38,291302  	35,807341  	37,869552  	41,152743  	51,330434  	49,299802  	53,048375  	70,149109  	22,705591  	21,117541  	21,926502  	74,886859  	-0,024135  	-0,012229  	1918,571055  	-1,993211  	-0,011066  	-0,049990  	0,373306  	0,189157  	-3,147683  	19136,175720  	3559,641245  	0,516282  	-0,047943  
289,550000  	13,516549  	51,006582  	1256,818530  	1256,670793  	79,869717  	75,899260  	0,004128  	0,012859  	0,003968  	0,004051  	0,004511  	-0,000000  	-0,000000  	24,064486  	19,528535  	21,417322  	26,906552  	38,278973  	35,804477  	37,864123  	41,150916  	51,316697  	49,299115  	53,050903  	70,145318  	22,706595  	21,122119  	21,919318  	74,886622  	0,048195  	0,024421  	-3831,311609  	-1,993673  	-0,011069  	-0,050003  	0,431282  	0,218534  	-3,638874  	19079,939411  	3681,805221  	0,534001  	-0,047954  
290,549000  	13,519182  	51,005777  	1256,818530  	1256,670793  	79,874340  	75,896639  	0,004119  	0,012877  	0,003968  	0,003985  	0,004509  	-0,000000  	-0,000000  	24,054060  	19,524872  	21,409508  	26,907379  	38,282069  	35,799663  	37,858243  	41,151787  	51,322016  	49,297108  	53,043173  	70,140412  	22,705024  	21,137785  	21,915822  	74,880251  	-0,005781  	-0,002929  	459,522284  	-1,993646  	-0,011069  	-0,050002  	0,429106  	0,217431  	-3,627120  	19119,170837  	3497,821374  	0,507316  	-0,047954  
291,547000  	13,523316  	51,006148  	1256,818530  	1256,670793  	79,874621  	75,898449  	0,004128  	0,012770  	0,003971  	0,004040  	0,004454  	0,000001  	-0,000000  	24,055143  	19,529798  	21,417647  	26,897656  	38,286473  	35,801693  	37,844653  	41,150017  	51,314199  	49,298927  	53,046563  	70,145930  	22,696770  	21,153795  	21,914585  	74,890411  	0,038820  	0,019670  	-3085,438342  	-1,993222  	-0,011066  	-0,049991  	0,385884  	0,195530  	-3,260528  	18887,471614  	3686,168977  	0,534634  	-0,047943  
292,548000  	13,525399  	51,006953  	57,725912  	1256,670793  	79,872622  	75,901943  	0,004121  	0,012839  	0,003964  	0,004058  	0,004498  	0,000000  	-0,000000  	24,054205  	19,525333  	21,413406  	26,893879  	38,278945  	35,797149  	37,851203  	41,144507  	51,310500  	49,304327  	53,041928  	70,141825  	22,706806  	21,147847  	21,911009  	74,883659  	0,053709  	0,027215  	-4268,696604  	24489,282033  	-0,018200  	-0,049996  	0,420514  	0,213078  	-3,548227  	19036,091900  	3544,198634  	0,514043  	-0,047948  
293,549000  	13,523561  	51,005498  	57,725912  	-242,047242  	79,869748  	75,898542  	0,004127  	0,012666  	0,003970  	0,003993  	0,004430  	0,000002  	-0,000000  	24,058431  	19,522920  	21,407550  	26,890814  	38,279166  	35,802845  	37,850178  	41,149473  	51,313109  	49,301836  	53,034315  	70,137197  	22,711199  	21,145440  	21,915349  	74,884429  	0,000862  	0,000437  	-68,516695  	-27688,796380  	-0,093523  	-0,049978  	0,367094  	0,186009  	-3,097884  	18663,821006  	3668,000783  	0,531999  	-0,047932  
294,547000  	13,516763  	51,004445  	1256,818530  	-242,047242  	79,867498  	75,897045  	0,004122  	0,012904  	0,003969  	0,004049  	0,004527  	-0,000001  	-0,000000  	24,062446  	19,518496  	21,406298  	26,898244  	38,276567  	35,796733  	37,848399  	41,154024  	51,317625  	49,298013  	53,036367  	70,134025  	22,727449  	21,134161  	21,914292  	74,881956  	0,046710  	0,023668  	-3713,036361  	-35514,950911  	-0,021698  	-0,050008  	0,444023  	0,224990  	-3,746375  	19176,045970  	3557,028641  	0,515903  	-0,047959  
295,551000  	13,509597  	51,004445  	1256,818530  	657,183579  	79,866905  	75,892832  	0,004128  	0,012877  	0,003967  	0,004018  	0,004508  	-0,000000  	-0,000000  	24,062071  	19,520567  	21,411271  	26,910109  	38,292826  	35,810308  	37,860855  	41,152136  	51,316437  	49,298260  	53,045214  	70,142718  	22,731155  	21,120291  	21,924496  	74,885428  	0,021560  	0,010925  	-1714,164207  	-9726,908558  	-0,013766  	-0,050004  	0,428248  	0,216996  	-3,616561  	19118,669258  	3677,328488  	0,533351  	-0,047955  
296,549000  	13,501084  	51,004012  	1256,818530  	1256,670793  	79,865405  	75,889462  	0,004120  	0,012871  	0,003969  	0,004050  	0,004489  	-0,000000  	-0,000000  	24,057058  	19,518500  	21,419179  	26,911199  	38,285594  	35,807177  	37,855979  	41,145359  	51,311733  	49,297812  	53,042342  	70,136497  	22,739081  	21,093935  	21,918142  	74,886442  	0,047453  	0,024045  	-3773,669109  	-1,993705  	-0,011069  	-0,050004  	0,413796  	0,209673  	-3,496156  	19105,550377  	3502,651161  	0,508017  	-0,047955  
297,547000  	13,491009  	51,002742  	1256,818530  	57,696365  	79,868030  	75,897294  	0,004125  	0,012859  	0,003966  	0,004075  	0,004564  	0,000000  	-0,000000  	24,061049  	19,518113  	21,418533  	26,901328  	38,280940  	35,802959  	37,853492  	41,145270  	51,317570  	49,298536  	53,042028  	70,134225  	22,748466  	21,060920  	21,912962  	74,880223  	0,067777  	0,034343  	-5391,152461  	-24492,837810  	-0,018200  	-0,049999  	0,472644  	0,239492  	-3,988142  	19079,786603  	3610,029207  	0,523590  	-0,047950  
298,548000  	13,485068  	51,002990  	1256,818530  	1256,670793  	79,872591  	75,903472  	0,004121  	0,012891  	0,003967  	0,003967  	0,004500  	-0,000000  	-0,000000  	24,052245  	19,512871  	21,412656  	26,897948  	38,277413  	35,797594  	37,851146  	41,143061  	51,309913  	49,297534  	53,042792  	70,130328  	22,757275  	21,024300  	21,913747  	74,882807  	-0,019959  	-0,010113  	1587,865914  	-1,993593  	-0,011069  	-0,050001  	0,422628  	0,214149  	-3,564663  	19148,157028  	3524,258107  	0,511150  	-0,047952  
299,550000  	13,484609  	51,003454  	357,499067  	1256,670793  	79,876808  	75,902286  	0,004127  	0,012864  	0,003968  	0,004029  	0,004465  	0,000001  	-0,000000  	24,051872  	19,514786  	21,411324  	26,898004  	38,279246  	35,802623  	37,851032  	41,144598  	51,310806  	49,295683  	53,036869  	70,131328  	22,766849  	20,992501  	21,918305  	74,890609  	0,029837  	0,015119  	-2373,761931  	16227,896282  	-0,015673  	-0,049989  	0,394935  	0,200116  	-3,335618  	19090,391928  	3666,835703  	0,531830  	-0,047942  
300,548000  	13,487549  	51,002154  	-242,047242  	57,696365  	79,874871  	75,902162  	0,004122  	0,012841  	0,003968  	0,004047  	0,004508  	0,000000  	-0,000000  	24,060166  	19,523892  	21,415344  	26,899131  	38,281345  	35,803483  	37,853313  	41,146692  	51,313425  	49,295054  	53,035837  	70,141154  	22,776662  	20,969663  	21,916801  	74,893880  	0,044723  	0,022662  	-3557,673527  	27697,818772  	-0,093563  	-0,049997  	0,428826  	0,217289  	-3,620212  	19041,926915  	3550,087586  	0,514897  	-0,047949  
301,549000  	13,486630  	51,001844  	57,725912  	1256,670793  	79,871029  	75,906062  	0,004122  	0,012830  	0,003966  	0,004013  	0,004489  	-0,000001  	-0,000000  	24,057529  	19,527548  	21,413070  	26,897440  	38,278961  	35,796263  	37,855386  	41,149804  	51,309099  	49,296204  	53,037975  	70,140763  	22,777322  	20,946683  	21,911336  	74,893668  	0,016926  	0,008577  	-1346,489340  	24495,595059  	-0,018204  	-0,050010  	0,413185  	0,209364  	-3,481366  	19017,044620  	3548,145786  	0,514615  	-0,047960  
